%ArduinoTime [ms]	Reference Position [rad]	Measured Position [rad]	Actual Current [A]	Proportional Gain [Kp]	Derivative Gain [Kd]	Integral Gain [Ki]	%3/10/20231:56 PM
0.000	0.000	0.000	0.000	0.000	0.000	0.000
1147655.000	0.000	-0.010	0.000	150.000	0.000	0.000
1147685.000	0.000	-0.010	0.000	150.000	0.000	0.000
1147685.000	0.000	-0.010	0.000	150.000	0.000	0.000
1147685.000	0.000	-0.010	0.000	150.000	0.000	0.000
1147715.000	0.000	-0.010	0.000	150.000	0.000	0.000
1147715.000	0.000	-0.010	0.000	150.000	0.000	0.000
1147715.000	0.000	-0.010	0.000	150.000	0.000	0.000
1147745.000	0.000	-0.010	0.000	150.000	0.000	0.000
1147745.000	0.000	-0.010	0.000	150.000	0.000	0.000
1147745.000	0.000	-0.010	0.000	150.000	0.000	0.000
1147775.000	0.000	-0.010	0.000	150.000	0.000	0.000
1147775.000	0.000	-0.010	0.000	150.000	0.000	0.000
1147775.000	0.000	-0.010	0.000	150.000	0.000	0.000
1147805.000	0.000	-0.010	0.000	150.000	0.000	0.000
1147805.000	0.000	-0.010	0.000	150.000	0.000	0.000
1147805.000	0.000	-0.010	0.000	150.000	0.000	0.000
1147835.000	0.000	-0.010	0.000	150.000	0.000	0.000
1147835.000	0.000	-0.010	0.000	150.000	0.000	0.000
1147835.000	0.000	-0.010	0.000	150.000	0.000	0.000
1147865.000	0.000	-0.010	0.000	150.000	0.000	0.000
1147865.000	0.000	-0.010	0.000	150.000	0.000	0.000
1147865.000	0.000	-0.010	0.000	150.000	0.000	0.000
1147895.000	0.000	-0.010	0.000	150.000	0.000	0.000
1147895.000	0.000	-0.010	0.000	150.000	0.000	0.000
1147895.000	0.000	-0.010	0.000	150.000	0.000	0.000
1147925.000	0.000	-0.010	0.000	150.000	0.000	0.000
1147925.000	0.000	-0.010	0.000	150.000	0.000	0.000
1147925.000	0.000	-0.010	0.000	150.000	0.000	0.000
1147955.000	0.000	-0.010	0.000	150.000	0.000	0.000
1147955.000	0.000	-0.010	0.000	150.000	0.000	0.000
1147955.000	0.000	-0.010	0.000	150.000	0.000	0.000
1147985.000	0.000	-0.010	0.000	150.000	0.000	0.000
1147985.000	0.000	-0.010	0.000	150.000	0.000	0.000
1147985.000	0.000	-0.010	0.000	150.000	0.000	0.000
1148015.000	0.000	-0.010	0.000	150.000	0.000	0.000
1148015.000	0.000	-0.010	0.000	150.000	0.000	0.000
1148015.000	0.000	-0.010	0.000	150.000	0.000	0.000
1148045.000	0.000	-0.010	0.000	150.000	0.000	0.000
1148045.000	0.000	-0.010	0.000	150.000	0.000	0.000
1148045.000	0.000	-0.010	0.000	150.000	0.000	0.000
1148075.000	0.000	-0.010	0.000	150.000	0.000	0.000
1148075.000	0.000	-0.010	0.000	150.000	0.000	0.000
1148075.000	0.000	-0.010	0.000	150.000	0.000	0.000
1148105.000	0.000	-0.010	0.000	150.000	0.000	0.000
1148105.000	0.000	-0.010	0.000	150.000	0.000	0.000
1148105.000	0.000	-0.010	0.000	150.000	0.000	0.000
1148135.000	0.000	-0.010	0.000	150.000	0.000	0.000
1148135.000	0.000	-0.010	0.000	150.000	0.000	0.000
1148135.000	0.000	-0.010	0.000	150.000	0.000	0.000
1148165.000	0.000	-0.010	0.000	150.000	0.000	0.000
1148165.000	0.000	-0.010	0.000	150.000	0.000	0.000
1148165.000	0.000	-0.010	0.000	150.000	0.000	0.000
1148195.000	0.000	-0.010	0.000	150.000	0.000	0.000
1148195.000	0.000	-0.010	0.000	150.000	0.000	0.000
1148195.000	0.000	-0.010	0.000	150.000	0.000	0.000
1148225.000	0.000	-0.010	0.000	150.000	0.000	0.000
1148225.000	0.000	-0.010	0.000	150.000	0.000	0.000
1148225.000	0.000	-0.010	0.000	150.000	0.000	0.000
1148255.000	0.000	-0.010	0.000	150.000	0.000	0.000
1148255.000	0.000	-0.010	0.000	150.000	0.000	0.000
1148255.000	0.000	-0.010	0.000	150.000	0.000	0.000
1148285.000	0.000	-0.010	0.000	150.000	0.000	0.000
1148285.000	0.000	-0.010	0.000	150.000	0.000	0.000
1148285.000	0.000	-0.010	0.000	150.000	0.000	0.000
1148315.000	0.000	-0.010	0.000	150.000	0.000	0.000
1148315.000	0.000	-0.010	0.000	150.000	0.000	0.000
1148315.000	0.000	-0.010	0.000	150.000	0.000	0.000
1148345.000	0.000	-0.010	0.000	150.000	0.000	0.000
1148345.000	0.000	-0.010	0.000	150.000	0.000	0.000
1148345.000	0.000	-0.010	0.000	150.000	0.000	0.000
1148375.000	0.000	-0.010	0.000	150.000	0.000	0.000
1148375.000	0.000	-0.010	0.000	150.000	0.000	0.000
1148375.000	0.000	-0.010	0.000	150.000	0.000	0.000
1148405.000	0.000	-0.010	0.000	150.000	0.000	0.000
1148405.000	0.000	-0.010	0.000	150.000	0.000	0.000
1148405.000	0.000	-0.010	0.000	150.000	0.000	0.000
1148435.000	0.000	-0.010	0.000	150.000	0.000	0.000
1148435.000	0.000	-0.010	0.000	150.000	0.000	0.000
1148435.000	0.000	-0.010	0.000	150.000	0.000	0.000
1148465.000	0.000	-0.010	0.000	150.000	0.000	0.000
1148465.000	0.000	-0.010	0.000	150.000	0.000	0.000
1148465.000	0.000	-0.010	0.000	150.000	0.000	0.000
1148495.000	0.000	-0.010	0.000	150.000	0.000	0.000
1148495.000	0.000	-0.010	0.000	150.000	0.000	0.000
1148495.000	0.000	-0.010	0.000	150.000	0.000	0.000
1148525.000	0.000	-0.010	0.000	150.000	0.000	0.000
1148525.000	0.000	-0.010	0.000	150.000	0.000	0.000
1148525.000	0.000	-0.010	0.000	150.000	0.000	0.000
1148555.000	0.000	-0.010	0.000	150.000	0.000	0.000
1148555.000	0.000	-0.010	0.000	150.000	0.000	0.000
1148555.000	0.000	-0.010	0.000	150.000	0.000	0.000
1148585.000	0.000	-0.010	0.000	150.000	0.000	0.000
1148585.000	0.000	-0.010	0.000	150.000	0.000	0.000
1148585.000	0.000	-0.010	0.000	150.000	0.000	0.000
1148615.000	0.000	-0.010	0.000	150.000	0.000	0.000
1148615.000	0.000	-0.010	0.000	150.000	0.000	0.000
1148615.000	0.000	-0.010	0.000	150.000	0.000	0.000
1148645.000	0.000	-0.010	0.000	150.000	0.000	0.000
1148645.000	0.000	-0.010	0.000	150.000	0.000	0.000
1148645.000	0.000	-0.010	0.000	150.000	0.000	0.000
1148675.000	0.000	-0.010	0.000	150.000	0.000	0.000
1148675.000	0.000	-0.010	0.000	150.000	0.000	0.000
1148675.000	0.000	-0.010	0.000	150.000	0.000	0.000
1148705.000	0.000	-0.010	0.000	150.000	0.000	0.000
1148705.000	0.000	-0.010	0.000	150.000	0.000	0.000
1148705.000	0.000	-0.010	0.000	150.000	0.000	0.000
1148735.000	0.000	-0.010	0.000	150.000	0.000	0.000
1148735.000	0.000	-0.010	0.000	150.000	0.000	0.000
1148735.000	0.000	-0.010	0.000	150.000	0.000	0.000
1148765.000	0.000	-0.010	0.000	150.000	0.000	0.000
1148765.000	0.000	-0.010	0.000	150.000	0.000	0.000
1148765.000	0.000	-0.010	0.000	150.000	0.000	0.000
1148795.000	0.000	-0.010	0.000	150.000	0.000	0.000
1148795.000	0.000	-0.010	0.000	150.000	0.000	0.000
1148795.000	0.000	-0.010	0.000	150.000	0.000	0.000
1148825.000	0.000	-0.010	0.000	150.000	0.000	0.000
1148825.000	0.000	-0.010	0.000	150.000	0.000	0.000
1148825.000	0.000	-0.010	0.000	150.000	0.000	0.000
1148855.000	0.000	-0.010	0.000	150.000	0.000	0.000
1148855.000	0.000	-0.010	0.000	150.000	0.000	0.000
1148855.000	0.000	-0.010	0.000	150.000	0.000	0.000
1148885.000	0.000	-0.010	0.000	150.000	0.000	0.000
1148885.000	0.000	-0.010	0.000	150.000	0.000	0.000
1148885.000	0.000	-0.010	0.000	150.000	0.000	0.000
1148915.000	0.000	-0.010	0.000	150.000	0.000	0.000
1148915.000	0.000	-0.010	0.000	150.000	0.000	0.000
1148915.000	0.000	-0.010	0.000	150.000	0.000	0.000
1148945.000	0.000	-0.010	0.000	150.000	0.000	0.000
1148945.000	0.000	-0.010	0.000	150.000	0.000	0.000
1148945.000	0.000	-0.010	0.000	150.000	0.000	0.000
1148975.000	0.000	-0.010	0.000	150.000	0.000	0.000
1148975.000	0.000	-0.010	0.000	150.000	0.000	0.000
1148975.000	0.000	-0.010	0.000	150.000	0.000	0.000
1149005.000	0.000	-0.010	0.000	150.000	0.000	0.000
1149005.000	0.000	-0.010	0.000	150.000	0.000	0.000
1149005.000	0.000	-0.010	0.000	150.000	0.000	0.000
1149035.000	0.000	-0.010	0.000	150.000	0.000	0.000
1149035.000	0.000	-0.010	0.000	150.000	0.000	0.000
1149035.000	0.000	-0.010	0.000	150.000	0.000	0.000
1149065.000	0.000	-0.010	0.000	150.000	0.000	0.000
1149065.000	0.000	-0.010	0.000	150.000	0.000	0.000
1149065.000	0.000	-0.010	0.000	150.000	0.000	0.000
1149095.000	0.000	-0.010	0.000	150.000	0.000	0.000
1149095.000	0.000	-0.010	0.000	150.000	0.000	0.000
1149095.000	0.000	-0.010	0.000	150.000	0.000	0.000
1149125.000	0.000	-0.010	0.000	150.000	0.000	0.000
1149125.000	0.000	-0.010	0.000	150.000	0.000	0.000
1149125.000	0.000	-0.010	0.000	150.000	0.000	0.000
1149155.000	0.000	-0.010	0.000	150.000	0.000	0.000
1149155.000	0.000	-0.010	0.000	150.000	0.000	0.000
1149155.000	0.000	-0.010	0.000	150.000	0.000	0.000
1149185.000	0.000	-0.010	0.000	150.000	0.000	0.000
1149185.000	0.000	-0.010	0.000	150.000	0.000	0.000
1149185.000	0.000	-0.010	0.000	150.000	0.000	0.000
1149215.000	0.000	-0.010	0.000	150.000	0.000	0.000
1149215.000	0.000	-0.010	0.000	150.000	0.000	0.000
1149215.000	0.000	-0.010	0.000	150.000	0.000	0.000
1149245.000	0.000	-0.010	0.000	150.000	0.000	0.000
1149245.000	0.000	-0.010	0.000	150.000	0.000	0.000
1149245.000	0.000	-0.010	0.000	150.000	0.000	0.000
1149275.000	0.000	-0.010	0.000	150.000	0.000	0.000
1149275.000	0.000	-0.010	0.000	150.000	0.000	0.000
1149275.000	0.000	-0.010	0.000	150.000	0.000	0.000
1149305.000	0.000	-0.020	0.031	150.000	0.000	0.000
1149305.000	0.000	-0.020	0.031	150.000	0.000	0.000
1149305.000	0.000	-0.020	0.031	150.000	0.000	0.000
1149335.000	0.000	-0.050	0.141	150.000	0.000	0.000
1149335.000	0.000	-0.050	0.141	150.000	0.000	0.000
1149335.000	0.000	-0.050	0.141	150.000	0.000	0.000
1149365.000	0.000	-0.100	0.312	150.000	0.000	0.000
1149365.000	0.000	-0.100	0.312	150.000	0.000	0.000
1149365.000	0.000	-0.100	0.312	150.000	0.000	0.000
1149395.000	0.000	-0.150	0.516	150.000	0.000	0.000
1149395.000	0.000	-0.150	0.516	150.000	0.000	0.000
1149395.000	0.000	-0.150	0.516	150.000	0.000	0.000
1149425.000	0.000	-0.210	0.719	150.000	0.000	0.000
1149425.000	0.000	-0.210	0.719	150.000	0.000	0.000
1149425.000	0.000	-0.210	0.719	150.000	0.000	0.000
1149455.000	0.000	-0.260	0.906	150.000	0.000	0.000
1149455.000	0.000	-0.260	0.906	150.000	0.000	0.000
1149455.000	0.000	-0.260	0.906	150.000	0.000	0.000
1149485.000	0.000	-0.310	1.078	150.000	0.000	0.000
1149485.000	0.000	-0.310	1.078	150.000	0.000	0.000
1149485.000	0.000	-0.310	1.078	150.000	0.000	0.000
1149515.000	0.000	-0.350	1.234	150.000	0.000	0.000
1149515.000	0.000	-0.350	1.234	150.000	0.000	0.000
1149515.000	0.000	-0.350	1.234	150.000	0.000	0.000
1149545.000	0.000	-0.380	1.344	150.000	0.000	0.000
1149545.000	0.000	-0.380	1.344	150.000	0.000	0.000
1149545.000	0.000	-0.380	1.344	150.000	0.000	0.000
1149575.000	0.000	-0.410	1.437	150.000	0.000	0.000
1149575.000	0.000	-0.410	1.437	150.000	0.000	0.000
1149575.000	0.000	-0.410	1.437	150.000	0.000	0.000
1149605.000	0.000	-0.430	1.500	150.000	0.000	0.000
1149605.000	0.000	-0.430	1.500	150.000	0.000	0.000
1149605.000	0.000	-0.430	1.500	150.000	0.000	0.000
1149635.000	0.000	-0.430	1.516	150.000	0.000	0.000
1149635.000	0.000	-0.430	1.516	150.000	0.000	0.000
1149635.000	0.000	-0.430	1.516	150.000	0.000	0.000
1149665.000	0.000	-0.430	1.516	150.000	0.000	0.000
1149665.000	0.000	-0.430	1.516	150.000	0.000	0.000
1149665.000	0.000	-0.430	1.516	150.000	0.000	0.000
1149695.000	0.000	-0.420	1.469	150.000	0.000	0.000
1149695.000	0.000	-0.420	1.469	150.000	0.000	0.000
1149695.000	0.000	-0.420	1.469	150.000	0.000	0.000
1149725.000	0.000	-0.400	1.406	150.000	0.000	0.000
1149725.000	0.000	-0.400	1.406	150.000	0.000	0.000
1149725.000	0.000	-0.400	1.406	150.000	0.000	0.000
1149755.000	0.000	-0.370	1.297	150.000	0.000	0.000
1149755.000	0.000	-0.370	1.297	150.000	0.000	0.000
1149755.000	0.000	-0.370	1.297	150.000	0.000	0.000
1149785.000	0.000	-0.330	1.156	150.000	0.000	0.000
1149785.000	0.000	-0.330	1.156	150.000	0.000	0.000
1149785.000	0.000	-0.330	1.156	150.000	0.000	0.000
1149815.000	0.000	-0.290	1.000	150.000	0.000	0.000
1149815.000	0.000	-0.290	1.000	150.000	0.000	0.000
1149815.000	0.000	-0.290	1.000	150.000	0.000	0.000
1149845.000	0.000	-0.240	0.828	150.000	0.000	0.000
1149845.000	0.000	-0.240	0.828	150.000	0.000	0.000
1149845.000	0.000	-0.240	0.828	150.000	0.000	0.000
1149875.000	0.000	-0.180	0.641	150.000	0.000	0.000
1149875.000	0.000	-0.180	0.641	150.000	0.000	0.000
1149875.000	0.000	-0.180	0.641	150.000	0.000	0.000
1149905.000	0.000	-0.120	0.422	150.000	0.000	0.000
1149905.000	0.000	-0.120	0.422	150.000	0.000	0.000
1149905.000	0.000	-0.120	0.422	150.000	0.000	0.000
1149935.000	0.000	-0.060	0.203	150.000	0.000	0.000
1149935.000	0.000	-0.060	0.203	150.000	0.000	0.000
1149935.000	0.000	-0.060	0.203	150.000	0.000	0.000
1149965.000	0.000	0.000	-0.016	150.000	0.000	0.000
1149965.000	0.000	0.000	-0.016	150.000	0.000	0.000
1149965.000	0.000	0.000	-0.016	150.000	0.000	0.000
1149995.000	0.000	0.060	-0.234	150.000	0.000	0.000
1149995.000	0.000	0.060	-0.234	150.000	0.000	0.000
1149995.000	0.000	0.060	-0.234	150.000	0.000	0.000
1150025.000	0.000	0.120	-0.453	150.000	0.000	0.000
1150025.000	0.000	0.120	-0.453	150.000	0.000	0.000
1150025.000	0.000	0.120	-0.453	150.000	0.000	0.000
1150055.000	0.000	0.180	-0.641	150.000	0.000	0.000
1150055.000	0.000	0.180	-0.641	150.000	0.000	0.000
1150055.000	0.000	0.180	-0.641	150.000	0.000	0.000
1150085.000	0.000	0.230	-0.828	150.000	0.000	0.000
1150085.000	0.000	0.230	-0.828	150.000	0.000	0.000
1150085.000	0.000	0.230	-0.828	150.000	0.000	0.000
1150115.000	0.000	0.270	-1.000	150.000	0.000	0.000
1150115.000	0.000	0.270	-1.000	150.000	0.000	0.000
1150115.000	0.000	0.270	-1.000	150.000	0.000	0.000
1150145.000	0.000	0.310	-1.141	150.000	0.000	0.000
1150145.000	0.000	0.310	-1.141	150.000	0.000	0.000
1150145.000	0.000	0.310	-1.141	150.000	0.000	0.000
1150175.000	0.000	0.340	-1.250	150.000	0.000	0.000
1150175.000	0.000	0.340	-1.250	150.000	0.000	0.000
1150175.000	0.000	0.340	-1.250	150.000	0.000	0.000
1150205.000	0.000	0.360	-1.312	150.000	0.000	0.000
1150205.000	0.000	0.360	-1.312	150.000	0.000	0.000
1150205.000	0.000	0.360	-1.312	150.000	0.000	0.000
1150235.000	0.000	0.370	-1.359	150.000	0.000	0.000
1150235.000	0.000	0.370	-1.359	150.000	0.000	0.000
1150235.000	0.000	0.370	-1.359	150.000	0.000	0.000
1150265.000	0.000	0.370	-1.359	150.000	0.000	0.000
1150265.000	0.000	0.370	-1.359	150.000	0.000	0.000
1150265.000	0.000	0.370	-1.359	150.000	0.000	0.000
1150295.000	0.000	0.360	-1.328	150.000	0.000	0.000
1150295.000	0.000	0.360	-1.328	150.000	0.000	0.000
1150295.000	0.000	0.360	-1.328	150.000	0.000	0.000
1150325.000	0.000	0.340	-1.266	150.000	0.000	0.000
1150325.000	0.000	0.340	-1.266	150.000	0.000	0.000
1150325.000	0.000	0.340	-1.266	150.000	0.000	0.000
1150355.000	0.000	0.320	-1.156	150.000	0.000	0.000
1150355.000	0.000	0.320	-1.156	150.000	0.000	0.000
1150355.000	0.000	0.320	-1.156	150.000	0.000	0.000
1150385.000	0.000	0.280	-1.031	150.000	0.000	0.000
1150385.000	0.000	0.280	-1.031	150.000	0.000	0.000
1150385.000	0.000	0.280	-1.031	150.000	0.000	0.000
1150415.000	0.000	0.240	-0.891	150.000	0.000	0.000
1150415.000	0.000	0.240	-0.891	150.000	0.000	0.000
1150415.000	0.000	0.240	-0.891	150.000	0.000	0.000
1150445.000	0.000	0.190	-0.703	150.000	0.000	0.000
1150445.000	0.000	0.190	-0.703	150.000	0.000	0.000
1150445.000	0.000	0.190	-0.703	150.000	0.000	0.000
1150475.000	0.000	0.140	-0.516	150.000	0.000	0.000
1150475.000	0.000	0.140	-0.516	150.000	0.000	0.000
1150475.000	0.000	0.140	-0.516	150.000	0.000	0.000
1150505.000	0.000	0.080	-0.312	150.000	0.000	0.000
1150505.000	0.000	0.080	-0.312	150.000	0.000	0.000
1150505.000	0.000	0.080	-0.312	150.000	0.000	0.000
1150535.000	0.000	0.020	-0.094	150.000	0.000	0.000
1150535.000	0.000	0.020	-0.094	150.000	0.000	0.000
1150535.000	0.000	0.020	-0.094	150.000	0.000	0.000
1150565.000	0.000	-0.040	0.109	150.000	0.000	0.000
1150565.000	0.000	-0.040	0.109	150.000	0.000	0.000
1150565.000	0.000	-0.040	0.109	150.000	0.000	0.000
1150595.000	0.000	-0.100	0.328	150.000	0.000	0.000
1150595.000	0.000	-0.100	0.328	150.000	0.000	0.000
1150595.000	0.000	-0.100	0.328	150.000	0.000	0.000
1150625.000	0.000	-0.160	0.531	150.000	0.000	0.000
1150625.000	0.000	-0.160	0.531	150.000	0.000	0.000
1150625.000	0.000	-0.160	0.531	150.000	0.000	0.000
1150655.000	0.000	-0.210	0.719	150.000	0.000	0.000
1150655.000	0.000	-0.210	0.719	150.000	0.000	0.000
1150655.000	0.000	-0.210	0.719	150.000	0.000	0.000
1150685.000	0.000	-0.260	0.906	150.000	0.000	0.000
1150685.000	0.000	-0.260	0.906	150.000	0.000	0.000
1150685.000	0.000	-0.260	0.906	150.000	0.000	0.000
1150715.000	0.000	-0.310	1.062	150.000	0.000	0.000
1150715.000	0.000	-0.310	1.062	150.000	0.000	0.000
1150715.000	0.000	-0.310	1.062	150.000	0.000	0.000
1150745.000	0.000	-0.340	1.203	150.000	0.000	0.000
1150745.000	0.000	-0.340	1.203	150.000	0.000	0.000
1150745.000	0.000	-0.340	1.203	150.000	0.000	0.000
1150775.000	0.000	-0.370	1.312	150.000	0.000	0.000
1150775.000	0.000	-0.370	1.312	150.000	0.000	0.000
1150775.000	0.000	-0.370	1.312	150.000	0.000	0.000
1150805.000	0.000	-0.400	1.391	150.000	0.000	0.000
1150805.000	0.000	-0.400	1.391	150.000	0.000	0.000
1150805.000	0.000	-0.400	1.391	150.000	0.000	0.000
1150835.000	0.000	-0.410	1.453	150.000	0.000	0.000
1150835.000	0.000	-0.410	1.453	150.000	0.000	0.000
1150835.000	0.000	-0.410	1.453	150.000	0.000	0.000
1150865.000	0.000	-0.420	1.469	150.000	0.000	0.000
1150865.000	0.000	-0.420	1.469	150.000	0.000	0.000
1150865.000	0.000	-0.420	1.469	150.000	0.000	0.000
1150895.000	0.000	-0.410	1.453	150.000	0.000	0.000
1150895.000	0.000	-0.410	1.453	150.000	0.000	0.000
1150895.000	0.000	-0.410	1.453	150.000	0.000	0.000
1150925.000	0.000	-0.400	1.406	150.000	0.000	0.000
1150925.000	0.000	-0.400	1.406	150.000	0.000	0.000
1150925.000	0.000	-0.400	1.406	150.000	0.000	0.000
1150955.000	0.000	-0.380	1.328	150.000	0.000	0.000
1150955.000	0.000	-0.380	1.328	150.000	0.000	0.000
1150955.000	0.000	-0.380	1.328	150.000	0.000	0.000
1150985.000	0.000	-0.350	1.219	150.000	0.000	0.000
1150985.000	0.000	-0.350	1.219	150.000	0.000	0.000
1150985.000	0.000	-0.350	1.219	150.000	0.000	0.000
1151015.000	0.000	-0.310	1.094	150.000	0.000	0.000
1151015.000	0.000	-0.310	1.094	150.000	0.000	0.000
1151015.000	0.000	-0.310	1.094	150.000	0.000	0.000
1151045.000	0.000	-0.270	0.937	150.000	0.000	0.000
1151045.000	0.000	-0.270	0.937	150.000	0.000	0.000
1151045.000	0.000	-0.270	0.937	150.000	0.000	0.000
1151075.000	0.000	-0.220	0.766	150.000	0.000	0.000
1151075.000	0.000	-0.220	0.766	150.000	0.000	0.000
1151075.000	0.000	-0.220	0.766	150.000	0.000	0.000
1151105.000	0.000	-0.170	0.578	150.000	0.000	0.000
1151105.000	0.000	-0.170	0.578	150.000	0.000	0.000
1151105.000	0.000	-0.170	0.578	150.000	0.000	0.000
1151135.000	0.000	-0.110	0.375	150.000	0.000	0.000
1151135.000	0.000	-0.110	0.375	150.000	0.000	0.000
1151135.000	0.000	-0.110	0.375	150.000	0.000	0.000
1151165.000	0.000	-0.050	0.172	150.000	0.000	0.000
1151165.000	0.000	-0.050	0.172	150.000	0.000	0.000
1151165.000	0.000	-0.050	0.172	150.000	0.000	0.000
1151195.000	0.000	0.010	-0.047	150.000	0.000	0.000
1151195.000	0.000	0.010	-0.047	150.000	0.000	0.000
1151195.000	0.000	0.010	-0.047	150.000	0.000	0.000
1151225.000	0.000	0.070	-0.250	150.000	0.000	0.000
1151225.000	0.000	0.070	-0.250	150.000	0.000	0.000
1151225.000	0.000	0.070	-0.250	150.000	0.000	0.000
1151255.000	0.000	0.120	-0.453	150.000	0.000	0.000
1151255.000	0.000	0.120	-0.453	150.000	0.000	0.000
1151255.000	0.000	0.120	-0.453	150.000	0.000	0.000
1151290.000	0.000	0.180	-0.672	150.000	0.000	0.000
1151290.000	0.000	0.180	-0.672	150.000	0.000	0.000
1151290.000	0.000	0.180	-0.672	150.000	0.000	0.000
1151315.000	0.000	0.220	-0.812	150.000	0.000	0.000
1151315.000	0.000	0.220	-0.812	150.000	0.000	0.000
1151315.000	0.000	0.220	-0.812	150.000	0.000	0.000
1151345.000	0.000	0.270	-0.969	150.000	0.000	0.000
1151345.000	0.000	0.270	-0.969	150.000	0.000	0.000
1151345.000	0.000	0.270	-0.969	150.000	0.000	0.000
1151375.000	0.000	0.300	-1.094	150.000	0.000	0.000
1151375.000	0.000	0.300	-1.094	150.000	0.000	0.000
1151375.000	0.000	0.300	-1.094	150.000	0.000	0.000
1151405.000	0.000	0.330	-1.203	150.000	0.000	0.000
1151405.000	0.000	0.330	-1.203	150.000	0.000	0.000
1151405.000	0.000	0.330	-1.203	150.000	0.000	0.000
1151435.000	0.000	0.350	-1.266	150.000	0.000	0.000
1151435.000	0.000	0.350	-1.266	150.000	0.000	0.000
1151435.000	0.000	0.350	-1.266	150.000	0.000	0.000
1151465.000	0.000	0.360	-1.297	150.000	0.000	0.000
1151465.000	0.000	0.360	-1.297	150.000	0.000	0.000
1151465.000	0.000	0.360	-1.297	150.000	0.000	0.000
1151495.000	0.000	0.350	-1.297	150.000	0.000	0.000
1151495.000	0.000	0.350	-1.297	150.000	0.000	0.000
1151495.000	0.000	0.350	-1.297	150.000	0.000	0.000
1151525.000	0.000	0.340	-1.266	150.000	0.000	0.000
1151525.000	0.000	0.340	-1.266	150.000	0.000	0.000
1151525.000	0.000	0.340	-1.266	150.000	0.000	0.000
1151555.000	0.000	0.320	-1.187	150.000	0.000	0.000
1151555.000	0.000	0.320	-1.187	150.000	0.000	0.000
1151555.000	0.000	0.320	-1.187	150.000	0.000	0.000
1151585.000	0.000	0.300	-1.094	150.000	0.000	0.000
1151585.000	0.000	0.300	-1.094	150.000	0.000	0.000
1151585.000	0.000	0.300	-1.094	150.000	0.000	0.000
1151615.000	0.000	0.260	-0.969	150.000	0.000	0.000
1151615.000	0.000	0.260	-0.969	150.000	0.000	0.000
1151615.000	0.000	0.260	-0.969	150.000	0.000	0.000
1151645.000	0.000	0.220	-0.812	150.000	0.000	0.000
1151645.000	0.000	0.220	-0.812	150.000	0.000	0.000
1151645.000	0.000	0.220	-0.812	150.000	0.000	0.000
1151675.000	0.000	0.170	-0.641	150.000	0.000	0.000
1151675.000	0.000	0.170	-0.641	150.000	0.000	0.000
1151675.000	0.000	0.170	-0.641	150.000	0.000	0.000
1151705.000	0.000	0.120	-0.469	150.000	0.000	0.000
1151705.000	0.000	0.120	-0.469	150.000	0.000	0.000
1151705.000	0.000	0.120	-0.469	150.000	0.000	0.000
1151735.000	0.000	0.060	-0.266	150.000	0.000	0.000
1151735.000	0.000	0.060	-0.266	150.000	0.000	0.000
1151735.000	0.000	0.060	-0.266	150.000	0.000	0.000
1151765.000	0.000	0.010	-0.062	150.000	0.000	0.000
1151765.000	0.000	0.010	-0.062	150.000	0.000	0.000
1151765.000	0.000	0.010	-0.062	150.000	0.000	0.000
1151795.000	0.000	-0.050	0.141	150.000	0.000	0.000
1151795.000	0.000	-0.050	0.141	150.000	0.000	0.000
1151795.000	0.000	-0.050	0.141	150.000	0.000	0.000
1151825.000	0.000	-0.110	0.344	150.000	0.000	0.000
1151825.000	0.000	-0.110	0.344	150.000	0.000	0.000
1151825.000	0.000	-0.110	0.344	150.000	0.000	0.000
1151855.000	0.000	-0.160	0.531	150.000	0.000	0.000
1151855.000	0.000	-0.160	0.531	150.000	0.000	0.000
1151855.000	0.000	-0.160	0.531	150.000	0.000	0.000
1151885.000	0.000	-0.210	0.719	150.000	0.000	0.000
1151885.000	0.000	-0.210	0.719	150.000	0.000	0.000
1151885.000	0.000	-0.210	0.719	150.000	0.000	0.000
1151915.000	0.000	-0.250	0.875	150.000	0.000	0.000
1151915.000	0.000	-0.250	0.875	150.000	0.000	0.000
1151915.000	0.000	-0.250	0.875	150.000	0.000	0.000
1151945.000	0.000	-0.300	1.031	150.000	0.000	0.000
1151945.000	0.000	-0.300	1.031	150.000	0.000	0.000
1151945.000	0.000	-0.300	1.031	150.000	0.000	0.000
1151975.000	0.000	-0.330	1.156	150.000	0.000	0.000
1151975.000	0.000	-0.330	1.156	150.000	0.000	0.000
1151975.000	0.000	-0.330	1.156	150.000	0.000	0.000
1152005.000	0.000	-0.360	1.250	150.000	0.000	0.000
1152005.000	0.000	-0.360	1.250	150.000	0.000	0.000
1152005.000	0.000	-0.360	1.250	150.000	0.000	0.000
1152035.000	0.000	-0.380	1.328	150.000	0.000	0.000
1152035.000	0.000	-0.380	1.328	150.000	0.000	0.000
1152035.000	0.000	-0.380	1.328	150.000	0.000	0.000
1152065.000	0.000	-0.390	1.375	150.000	0.000	0.000
1152065.000	0.000	-0.390	1.375	150.000	0.000	0.000
1152065.000	0.000	-0.390	1.375	150.000	0.000	0.000
1152095.000	0.000	-0.390	1.375	150.000	0.000	0.000
1152095.000	0.000	-0.390	1.375	150.000	0.000	0.000
1152095.000	0.000	-0.390	1.375	150.000	0.000	0.000
1152125.000	0.000	-0.390	1.359	150.000	0.000	0.000
1152125.000	0.000	-0.390	1.359	150.000	0.000	0.000
1152125.000	0.000	-0.390	1.359	150.000	0.000	0.000
1152155.000	0.000	-0.370	1.312	150.000	0.000	0.000
1152155.000	0.000	-0.370	1.312	150.000	0.000	0.000
1152155.000	0.000	-0.370	1.312	150.000	0.000	0.000
1152185.000	0.000	-0.350	1.234	150.000	0.000	0.000
1152185.000	0.000	-0.350	1.234	150.000	0.000	0.000
1152185.000	0.000	-0.350	1.234	150.000	0.000	0.000
1152215.000	0.000	-0.320	1.141	150.000	0.000	0.000
1152215.000	0.000	-0.320	1.141	150.000	0.000	0.000
1152215.000	0.000	-0.320	1.141	150.000	0.000	0.000
1152245.000	0.000	-0.290	1.016	150.000	0.000	0.000
1152245.000	0.000	-0.290	1.016	150.000	0.000	0.000
1152245.000	0.000	-0.290	1.016	150.000	0.000	0.000
1152275.000	0.000	-0.250	0.859	150.000	0.000	0.000
1152275.000	0.000	-0.250	0.859	150.000	0.000	0.000
1152275.000	0.000	-0.250	0.859	150.000	0.000	0.000
1152305.000	0.000	-0.200	0.703	150.000	0.000	0.000
1152305.000	0.000	-0.200	0.703	150.000	0.000	0.000
1152305.000	0.000	-0.200	0.703	150.000	0.000	0.000
1152335.000	0.000	-0.150	0.516	150.000	0.000	0.000
1152335.000	0.000	-0.150	0.516	150.000	0.000	0.000
1152335.000	0.000	-0.150	0.516	150.000	0.000	0.000
1152365.000	0.000	-0.100	0.328	150.000	0.000	0.000
1152365.000	0.000	-0.100	0.328	150.000	0.000	0.000
1152365.000	0.000	-0.100	0.328	150.000	0.000	0.000
1152395.000	0.000	-0.040	0.125	150.000	0.000	0.000
1152395.000	0.000	-0.040	0.125	150.000	0.000	0.000
1152395.000	0.000	-0.040	0.125	150.000	0.000	0.000
1152425.000	0.000	0.010	-0.062	150.000	0.000	0.000
1152425.000	0.000	0.010	-0.062	150.000	0.000	0.000
1152425.000	0.000	0.010	-0.062	150.000	0.000	0.000
1152455.000	0.000	0.070	-0.266	150.000	0.000	0.000
1152455.000	0.000	0.070	-0.266	150.000	0.000	0.000
1152455.000	0.000	0.070	-0.266	150.000	0.000	0.000
1152485.000	0.000	0.120	-0.453	150.000	0.000	0.000
1152485.000	0.000	0.120	-0.453	150.000	0.000	0.000
1152485.000	0.000	0.120	-0.453	150.000	0.000	0.000
1152515.000	0.000	0.170	-0.625	150.000	0.000	0.000
1152515.000	0.000	0.170	-0.625	150.000	0.000	0.000
1152515.000	0.000	0.170	-0.625	150.000	0.000	0.000
1152545.000	0.000	0.210	-0.781	150.000	0.000	0.000
1152545.000	0.000	0.210	-0.781	150.000	0.000	0.000
1152545.000	0.000	0.210	-0.781	150.000	0.000	0.000
1152575.000	0.000	0.250	-0.922	150.000	0.000	0.000
1152575.000	0.000	0.250	-0.922	150.000	0.000	0.000
1152575.000	0.000	0.250	-0.922	150.000	0.000	0.000
1152605.000	0.000	0.280	-1.031	150.000	0.000	0.000
1152605.000	0.000	0.280	-1.031	150.000	0.000	0.000
1152605.000	0.000	0.280	-1.031	150.000	0.000	0.000
1152635.000	0.000	0.310	-1.125	150.000	0.000	0.000
1152635.000	0.000	0.310	-1.125	150.000	0.000	0.000
1152635.000	0.000	0.310	-1.125	150.000	0.000	0.000
1152665.000	0.000	0.320	-1.187	150.000	0.000	0.000
1152665.000	0.000	0.320	-1.187	150.000	0.000	0.000
1152665.000	0.000	0.320	-1.187	150.000	0.000	0.000
1152695.000	0.000	0.330	-1.219	150.000	0.000	0.000
1152695.000	0.000	0.330	-1.219	150.000	0.000	0.000
1152695.000	0.000	0.330	-1.219	150.000	0.000	0.000
1152725.000	0.000	0.330	-1.203	150.000	0.000	0.000
1152725.000	0.000	0.330	-1.203	150.000	0.000	0.000
1152725.000	0.000	0.330	-1.203	150.000	0.000	0.000
1152755.000	0.000	0.320	-1.172	150.000	0.000	0.000
1152755.000	0.000	0.320	-1.172	150.000	0.000	0.000
1152755.000	0.000	0.320	-1.172	150.000	0.000	0.000
1152785.000	0.000	0.300	-1.109	150.000	0.000	0.000
1152785.000	0.000	0.300	-1.109	150.000	0.000	0.000
1152785.000	0.000	0.300	-1.109	150.000	0.000	0.000
1152815.000	0.000	0.270	-1.016	150.000	0.000	0.000
1152815.000	0.000	0.270	-1.016	150.000	0.000	0.000
1152815.000	0.000	0.270	-1.016	150.000	0.000	0.000
1152845.000	0.000	0.240	-0.891	150.000	0.000	0.000
1152845.000	0.000	0.240	-0.891	150.000	0.000	0.000
1152845.000	0.000	0.240	-0.891	150.000	0.000	0.000
1152875.000	0.000	0.200	-0.750	150.000	0.000	0.000
1152875.000	0.000	0.200	-0.750	150.000	0.000	0.000
1152875.000	0.000	0.200	-0.750	150.000	0.000	0.000
1152905.000	0.000	0.160	-0.594	150.000	0.000	0.000
1152905.000	0.000	0.160	-0.594	150.000	0.000	0.000
1152905.000	0.000	0.160	-0.594	150.000	0.000	0.000
1152935.000	0.000	0.110	-0.422	150.000	0.000	0.000
1152935.000	0.000	0.110	-0.422	150.000	0.000	0.000
1152935.000	0.000	0.110	-0.422	150.000	0.000	0.000
1152965.000	0.000	0.060	-0.234	150.000	0.000	0.000
1152965.000	0.000	0.060	-0.234	150.000	0.000	0.000
1152965.000	0.000	0.060	-0.234	150.000	0.000	0.000
1152995.000	0.000	0.000	-0.047	150.000	0.000	0.000
1152995.000	0.000	0.000	-0.047	150.000	0.000	0.000
1152995.000	0.000	0.000	-0.047	150.000	0.000	0.000
1153025.000	0.000	-0.050	0.141	150.000	0.000	0.000
1153025.000	0.000	-0.050	0.141	150.000	0.000	0.000
1153025.000	0.000	-0.050	0.141	150.000	0.000	0.000
1153055.000	0.000	-0.100	0.328	150.000	0.000	0.000
1153055.000	0.000	-0.100	0.328	150.000	0.000	0.000
1153055.000	0.000	-0.100	0.328	150.000	0.000	0.000
1153085.000	0.000	-0.150	0.500	150.000	0.000	0.000
1153085.000	0.000	-0.150	0.500	150.000	0.000	0.000
1153085.000	0.000	-0.150	0.500	150.000	0.000	0.000
1153115.000	0.000	-0.200	0.672	150.000	0.000	0.000
1153115.000	0.000	-0.200	0.672	150.000	0.000	0.000
1153115.000	0.000	-0.200	0.672	150.000	0.000	0.000
1153145.000	0.000	-0.240	0.828	150.000	0.000	0.000
1153145.000	0.000	-0.240	0.828	150.000	0.000	0.000
1153145.000	0.000	-0.240	0.828	150.000	0.000	0.000
1153175.000	0.000	-0.280	0.953	150.000	0.000	0.000
1153175.000	0.000	-0.280	0.953	150.000	0.000	0.000
1153175.000	0.000	-0.280	0.953	150.000	0.000	0.000
1153205.000	0.000	-0.310	1.078	150.000	0.000	0.000
1153205.000	0.000	-0.310	1.078	150.000	0.000	0.000
1153205.000	0.000	-0.310	1.078	150.000	0.000	0.000
1153235.000	0.000	-0.330	1.156	150.000	0.000	0.000
1153235.000	0.000	-0.330	1.156	150.000	0.000	0.000
1153235.000	0.000	-0.330	1.156	150.000	0.000	0.000
1153265.000	0.000	-0.350	1.234	150.000	0.000	0.000
1153265.000	0.000	-0.350	1.234	150.000	0.000	0.000
1153265.000	0.000	-0.350	1.234	150.000	0.000	0.000
1153295.000	0.000	-0.360	1.266	150.000	0.000	0.000
1153295.000	0.000	-0.360	1.266	150.000	0.000	0.000
1153295.000	0.000	-0.360	1.266	150.000	0.000	0.000
1153325.000	0.000	-0.360	1.281	150.000	0.000	0.000
1153325.000	0.000	-0.360	1.281	150.000	0.000	0.000
1153325.000	0.000	-0.360	1.281	150.000	0.000	0.000
1153355.000	0.000	-0.360	1.266	150.000	0.000	0.000
1153355.000	0.000	-0.360	1.266	150.000	0.000	0.000
1153355.000	0.000	-0.360	1.266	150.000	0.000	0.000
1153385.000	0.000	-0.350	1.219	150.000	0.000	0.000
1153385.000	0.000	-0.350	1.219	150.000	0.000	0.000
1153385.000	0.000	-0.350	1.219	150.000	0.000	0.000
1153415.000	0.000	-0.320	1.141	150.000	0.000	0.000
1153415.000	0.000	-0.320	1.141	150.000	0.000	0.000
1153415.000	0.000	-0.320	1.141	150.000	0.000	0.000
1153445.000	0.000	-0.300	1.047	150.000	0.000	0.000
1153445.000	0.000	-0.300	1.047	150.000	0.000	0.000
1153445.000	0.000	-0.300	1.047	150.000	0.000	0.000
1153475.000	0.000	-0.270	0.922	150.000	0.000	0.000
1153475.000	0.000	-0.270	0.922	150.000	0.000	0.000
1153475.000	0.000	-0.270	0.922	150.000	0.000	0.000
1153505.000	0.000	-0.230	0.797	150.000	0.000	0.000
1153505.000	0.000	-0.230	0.797	150.000	0.000	0.000
1153505.000	0.000	-0.230	0.797	150.000	0.000	0.000
1153535.000	0.000	-0.180	0.641	150.000	0.000	0.000
1153535.000	0.000	-0.180	0.641	150.000	0.000	0.000
1153535.000	0.000	-0.180	0.641	150.000	0.000	0.000
1153565.000	0.000	-0.140	0.469	150.000	0.000	0.000
1153565.000	0.000	-0.140	0.469	150.000	0.000	0.000
1153565.000	0.000	-0.140	0.469	150.000	0.000	0.000
1153595.000	0.000	-0.090	0.297	150.000	0.000	0.000
1153595.000	0.000	-0.090	0.297	150.000	0.000	0.000
1153595.000	0.000	-0.090	0.297	150.000	0.000	0.000
1153625.000	0.000	-0.040	0.125	150.000	0.000	0.000
1153625.000	0.000	-0.040	0.125	150.000	0.000	0.000
1153625.000	0.000	-0.040	0.125	150.000	0.000	0.000
1153655.000	0.000	0.010	-0.062	150.000	0.000	0.000
1153655.000	0.000	0.010	-0.062	150.000	0.000	0.000
1153655.000	0.000	0.010	-0.062	150.000	0.000	0.000
1153685.000	0.000	0.060	-0.234	150.000	0.000	0.000
1153685.000	0.000	0.060	-0.234	150.000	0.000	0.000
1153685.000	0.000	0.060	-0.234	150.000	0.000	0.000
1153715.000	0.000	0.110	-0.406	150.000	0.000	0.000
1153715.000	0.000	0.110	-0.406	150.000	0.000	0.000
1153715.000	0.000	0.110	-0.406	150.000	0.000	0.000
1153745.000	0.000	0.150	-0.578	150.000	0.000	0.000
1153745.000	0.000	0.150	-0.578	150.000	0.000	0.000
1153745.000	0.000	0.150	-0.578	150.000	0.000	0.000
1153775.000	0.000	0.190	-0.719	150.000	0.000	0.000
1153775.000	0.000	0.190	-0.719	150.000	0.000	0.000
1153775.000	0.000	0.190	-0.719	150.000	0.000	0.000
1153805.000	0.000	0.230	-0.844	150.000	0.000	0.000
1153805.000	0.000	0.230	-0.844	150.000	0.000	0.000
1153805.000	0.000	0.230	-0.844	150.000	0.000	0.000
1153835.000	0.000	0.260	-0.953	150.000	0.000	0.000
1153835.000	0.000	0.260	-0.953	150.000	0.000	0.000
1153835.000	0.000	0.260	-0.953	150.000	0.000	0.000
1153865.000	0.000	0.280	-1.031	150.000	0.000	0.000
1153865.000	0.000	0.280	-1.031	150.000	0.000	0.000
1153865.000	0.000	0.280	-1.031	150.000	0.000	0.000
1153895.000	0.000	0.300	-1.094	150.000	0.000	0.000
1153895.000	0.000	0.300	-1.094	150.000	0.000	0.000
1153895.000	0.000	0.300	-1.094	150.000	0.000	0.000
1153925.000	0.000	0.300	-1.109	150.000	0.000	0.000
1153925.000	0.000	0.300	-1.109	150.000	0.000	0.000
1153925.000	0.000	0.300	-1.109	150.000	0.000	0.000
1153955.000	0.000	0.300	-1.109	150.000	0.000	0.000
1153955.000	0.000	0.300	-1.109	150.000	0.000	0.000
1153955.000	0.000	0.300	-1.109	150.000	0.000	0.000
1153985.000	0.000	0.290	-1.078	150.000	0.000	0.000
1153985.000	0.000	0.290	-1.078	150.000	0.000	0.000
1153985.000	0.000	0.290	-1.078	150.000	0.000	0.000
1154015.000	0.000	0.280	-1.016	150.000	0.000	0.000
1154015.000	0.000	0.280	-1.016	150.000	0.000	0.000
1154015.000	0.000	0.280	-1.016	150.000	0.000	0.000
1154045.000	0.000	0.250	-0.922	150.000	0.000	0.000
1154045.000	0.000	0.250	-0.922	150.000	0.000	0.000
1154045.000	0.000	0.250	-0.922	150.000	0.000	0.000
1154075.000	0.000	0.220	-0.828	150.000	0.000	0.000
1154075.000	0.000	0.220	-0.828	150.000	0.000	0.000
1154075.000	0.000	0.220	-0.828	150.000	0.000	0.000
1154105.000	0.000	0.180	-0.687	150.000	0.000	0.000
1154105.000	0.000	0.180	-0.687	150.000	0.000	0.000
1154105.000	0.000	0.180	-0.687	150.000	0.000	0.000
1154135.000	0.000	0.140	-0.547	150.000	0.000	0.000
1154135.000	0.000	0.140	-0.547	150.000	0.000	0.000
1154135.000	0.000	0.140	-0.547	150.000	0.000	0.000
1154165.000	0.000	0.100	-0.391	150.000	0.000	0.000
1154165.000	0.000	0.100	-0.391	150.000	0.000	0.000
1154165.000	0.000	0.100	-0.391	150.000	0.000	0.000
1154195.000	0.000	0.050	-0.219	150.000	0.000	0.000
1154195.000	0.000	0.050	-0.219	150.000	0.000	0.000
1154195.000	0.000	0.050	-0.219	150.000	0.000	0.000
1154225.000	0.000	0.000	-0.047	150.000	0.000	0.000
1154225.000	0.000	0.000	-0.047	150.000	0.000	0.000
1154225.000	0.000	0.000	-0.047	150.000	0.000	0.000
1154255.000	0.000	-0.050	0.125	150.000	0.000	0.000
1154255.000	0.000	-0.050	0.125	150.000	0.000	0.000
1154255.000	0.000	-0.050	0.125	150.000	0.000	0.000
1154285.000	0.000	-0.090	0.297	150.000	0.000	0.000
1154285.000	0.000	-0.090	0.297	150.000	0.000	0.000
1154285.000	0.000	-0.090	0.297	150.000	0.000	0.000
1154315.000	0.000	-0.140	0.469	150.000	0.000	0.000
1154315.000	0.000	-0.140	0.469	150.000	0.000	0.000
1154315.000	0.000	-0.140	0.469	150.000	0.000	0.000
1154345.000	0.000	-0.180	0.609	150.000	0.000	0.000
1154345.000	0.000	-0.180	0.609	150.000	0.000	0.000
1154345.000	0.000	-0.180	0.609	150.000	0.000	0.000
1154375.000	0.000	-0.220	0.750	150.000	0.000	0.000
1154375.000	0.000	-0.220	0.750	150.000	0.000	0.000
1154375.000	0.000	-0.220	0.750	150.000	0.000	0.000
1154405.000	0.000	-0.250	0.875	150.000	0.000	0.000
1154405.000	0.000	-0.250	0.875	150.000	0.000	0.000
1154405.000	0.000	-0.250	0.875	150.000	0.000	0.000
1154435.000	0.000	-0.280	0.984	150.000	0.000	0.000
1154435.000	0.000	-0.280	0.984	150.000	0.000	0.000
1154435.000	0.000	-0.280	0.984	150.000	0.000	0.000
1154465.000	0.000	-0.310	1.062	150.000	0.000	0.000
1154465.000	0.000	-0.310	1.062	150.000	0.000	0.000
1154465.000	0.000	-0.310	1.062	150.000	0.000	0.000
1154495.000	0.000	-0.320	1.125	150.000	0.000	0.000
1154495.000	0.000	-0.320	1.125	150.000	0.000	0.000
1154495.000	0.000	-0.320	1.125	150.000	0.000	0.000
1154525.000	0.000	-0.330	1.156	150.000	0.000	0.000
1154525.000	0.000	-0.330	1.156	150.000	0.000	0.000
1154525.000	0.000	-0.330	1.156	150.000	0.000	0.000
1154555.000	0.000	-0.330	1.172	150.000	0.000	0.000
1154555.000	0.000	-0.330	1.172	150.000	0.000	0.000
1154555.000	0.000	-0.330	1.172	150.000	0.000	0.000
1154585.000	0.000	-0.330	1.156	150.000	0.000	0.000
1154585.000	0.000	-0.330	1.156	150.000	0.000	0.000
1154585.000	0.000	-0.330	1.156	150.000	0.000	0.000
1154615.000	0.000	-0.320	1.109	150.000	0.000	0.000
1154615.000	0.000	-0.320	1.109	150.000	0.000	0.000
1154615.000	0.000	-0.320	1.109	150.000	0.000	0.000
1154645.000	0.000	-0.300	1.047	150.000	0.000	0.000
1154645.000	0.000	-0.300	1.047	150.000	0.000	0.000
1154645.000	0.000	-0.300	1.047	150.000	0.000	0.000
1154675.000	0.000	-0.280	0.969	150.000	0.000	0.000
1154675.000	0.000	-0.280	0.969	150.000	0.000	0.000
1154675.000	0.000	-0.280	0.969	150.000	0.000	0.000
1154705.000	0.000	-0.250	0.859	150.000	0.000	0.000
1154705.000	0.000	-0.250	0.859	150.000	0.000	0.000
1154705.000	0.000	-0.250	0.859	150.000	0.000	0.000
1154735.000	0.000	-0.210	0.734	150.000	0.000	0.000
1154735.000	0.000	-0.210	0.734	150.000	0.000	0.000
1154735.000	0.000	-0.210	0.734	150.000	0.000	0.000
1154765.000	0.000	-0.170	0.594	150.000	0.000	0.000
1154765.000	0.000	-0.170	0.594	150.000	0.000	0.000
1154765.000	0.000	-0.170	0.594	150.000	0.000	0.000
1154795.000	0.000	-0.130	0.453	150.000	0.000	0.000
1154795.000	0.000	-0.130	0.453	150.000	0.000	0.000
1154795.000	0.000	-0.130	0.453	150.000	0.000	0.000
1154825.000	0.000	-0.090	0.297	150.000	0.000	0.000
1154825.000	0.000	-0.090	0.297	150.000	0.000	0.000
1154825.000	0.000	-0.090	0.297	150.000	0.000	0.000
1154855.000	0.000	-0.040	0.125	150.000	0.000	0.000
1154855.000	0.000	-0.040	0.125	150.000	0.000	0.000
1154855.000	0.000	-0.040	0.125	150.000	0.000	0.000
1154885.000	0.000	0.010	-0.031	150.000	0.000	0.000
1154885.000	0.000	0.010	-0.031	150.000	0.000	0.000
1154885.000	0.000	0.010	-0.031	150.000	0.000	0.000
1154915.000	0.000	0.050	-0.203	150.000	0.000	0.000
1154915.000	0.000	0.050	-0.203	150.000	0.000	0.000
1154915.000	0.000	0.050	-0.203	150.000	0.000	0.000
1154945.000	0.000	0.100	-0.359	150.000	0.000	0.000
1154945.000	0.000	0.100	-0.359	150.000	0.000	0.000
1154945.000	0.000	0.100	-0.359	150.000	0.000	0.000
1154975.000	0.000	0.140	-0.516	150.000	0.000	0.000
1154975.000	0.000	0.140	-0.516	150.000	0.000	0.000
1154975.000	0.000	0.140	-0.516	150.000	0.000	0.000
1155005.000	0.000	0.170	-0.641	150.000	0.000	0.000
1155005.000	0.000	0.170	-0.641	150.000	0.000	0.000
1155005.000	0.000	0.170	-0.641	150.000	0.000	0.000
1155035.000	0.000	0.210	-0.766	150.000	0.000	0.000
1155035.000	0.000	0.210	-0.766	150.000	0.000	0.000
1155035.000	0.000	0.210	-0.766	150.000	0.000	0.000
1155065.000	0.000	0.230	-0.859	150.000	0.000	0.000
1155065.000	0.000	0.230	-0.859	150.000	0.000	0.000
1155065.000	0.000	0.230	-0.859	150.000	0.000	0.000
1155095.000	0.000	0.260	-0.937	150.000	0.000	0.000
1155095.000	0.000	0.260	-0.937	150.000	0.000	0.000
1155095.000	0.000	0.260	-0.937	150.000	0.000	0.000
1155125.000	0.000	0.270	-0.984	150.000	0.000	0.000
1155125.000	0.000	0.270	-0.984	150.000	0.000	0.000
1155125.000	0.000	0.270	-0.984	150.000	0.000	0.000
1155155.000	0.000	0.280	-1.016	150.000	0.000	0.000
1155155.000	0.000	0.280	-1.016	150.000	0.000	0.000
1155155.000	0.000	0.280	-1.016	150.000	0.000	0.000
1155185.000	0.000	0.270	-1.016	150.000	0.000	0.000
1155185.000	0.000	0.270	-1.016	150.000	0.000	0.000
1155185.000	0.000	0.270	-1.016	150.000	0.000	0.000
1155215.000	0.000	0.270	-0.984	150.000	0.000	0.000
1155215.000	0.000	0.270	-0.984	150.000	0.000	0.000
1155215.000	0.000	0.270	-0.984	150.000	0.000	0.000
1155245.000	0.000	0.250	-0.922	150.000	0.000	0.000
1155245.000	0.000	0.250	-0.922	150.000	0.000	0.000
1155245.000	0.000	0.250	-0.922	150.000	0.000	0.000
1155275.000	0.000	0.230	-0.844	150.000	0.000	0.000
1155275.000	0.000	0.230	-0.844	150.000	0.000	0.000
1155275.000	0.000	0.230	-0.844	150.000	0.000	0.000
1155305.000	0.000	0.200	-0.750	150.000	0.000	0.000
1155305.000	0.000	0.200	-0.750	150.000	0.000	0.000
1155305.000	0.000	0.200	-0.750	150.000	0.000	0.000
1155335.000	0.000	0.170	-0.625	150.000	0.000	0.000
1155335.000	0.000	0.170	-0.625	150.000	0.000	0.000
1155335.000	0.000	0.170	-0.625	150.000	0.000	0.000
1155365.000	0.000	0.130	-0.500	150.000	0.000	0.000
1155365.000	0.000	0.130	-0.500	150.000	0.000	0.000
1155365.000	0.000	0.130	-0.500	150.000	0.000	0.000
1155395.000	0.000	0.090	-0.359	150.000	0.000	0.000
1155395.000	0.000	0.090	-0.359	150.000	0.000	0.000
1155395.000	0.000	0.090	-0.359	150.000	0.000	0.000
1155425.000	0.000	0.050	-0.203	150.000	0.000	0.000
1155425.000	0.000	0.050	-0.203	150.000	0.000	0.000
1155425.000	0.000	0.050	-0.203	150.000	0.000	0.000
1155455.000	0.000	0.000	-0.047	150.000	0.000	0.000
1155455.000	0.000	0.000	-0.047	150.000	0.000	0.000
1155455.000	0.000	0.000	-0.047	150.000	0.000	0.000
1155485.000	0.000	-0.040	0.109	150.000	0.000	0.000
1155485.000	0.000	-0.040	0.109	150.000	0.000	0.000
1155485.000	0.000	-0.040	0.109	150.000	0.000	0.000
1155515.000	0.000	-0.080	0.266	150.000	0.000	0.000
1155515.000	0.000	-0.080	0.266	150.000	0.000	0.000
1155515.000	0.000	-0.080	0.266	150.000	0.000	0.000
1155545.000	0.000	-0.130	0.422	150.000	0.000	0.000
1155545.000	0.000	-0.130	0.422	150.000	0.000	0.000
1155545.000	0.000	-0.130	0.422	150.000	0.000	0.000
1155575.000	0.000	-0.160	0.562	150.000	0.000	0.000
1155575.000	0.000	-0.160	0.562	150.000	0.000	0.000
1155575.000	0.000	-0.160	0.562	150.000	0.000	0.000
1155605.000	0.000	-0.200	0.687	150.000	0.000	0.000
1155605.000	0.000	-0.200	0.687	150.000	0.000	0.000
1155605.000	0.000	-0.200	0.687	150.000	0.000	0.000
1155635.000	0.000	-0.230	0.797	150.000	0.000	0.000
1155635.000	0.000	-0.230	0.797	150.000	0.000	0.000
1155635.000	0.000	-0.230	0.797	150.000	0.000	0.000
1155665.000	0.000	-0.260	0.891	150.000	0.000	0.000
1155665.000	0.000	-0.260	0.891	150.000	0.000	0.000
1155665.000	0.000	-0.260	0.891	150.000	0.000	0.000
1155695.000	0.000	-0.280	0.969	150.000	0.000	0.000
1155695.000	0.000	-0.280	0.969	150.000	0.000	0.000
1155695.000	0.000	-0.280	0.969	150.000	0.000	0.000
1155725.000	0.000	-0.290	1.031	150.000	0.000	0.000
1155725.000	0.000	-0.290	1.031	150.000	0.000	0.000
1155725.000	0.000	-0.290	1.031	150.000	0.000	0.000
1155755.000	0.000	-0.300	1.062	150.000	0.000	0.000
1155755.000	0.000	-0.300	1.062	150.000	0.000	0.000
1155755.000	0.000	-0.300	1.062	150.000	0.000	0.000
1155785.000	0.000	-0.300	1.062	150.000	0.000	0.000
1155785.000	0.000	-0.300	1.062	150.000	0.000	0.000
1155785.000	0.000	-0.300	1.062	150.000	0.000	0.000
1155815.000	0.000	-0.300	1.047	150.000	0.000	0.000
1155815.000	0.000	-0.300	1.047	150.000	0.000	0.000
1155815.000	0.000	-0.300	1.047	150.000	0.000	0.000
1155845.000	0.000	-0.290	1.016	150.000	0.000	0.000
1155845.000	0.000	-0.290	1.016	150.000	0.000	0.000
1155845.000	0.000	-0.290	1.016	150.000	0.000	0.000
1155875.000	0.000	-0.270	0.953	150.000	0.000	0.000
1155875.000	0.000	-0.270	0.953	150.000	0.000	0.000
1155875.000	0.000	-0.270	0.953	150.000	0.000	0.000
1155905.000	0.000	-0.250	0.875	150.000	0.000	0.000
1155905.000	0.000	-0.250	0.875	150.000	0.000	0.000
1155905.000	0.000	-0.250	0.875	150.000	0.000	0.000
1155935.000	0.000	-0.220	0.781	150.000	0.000	0.000
1155935.000	0.000	-0.220	0.781	150.000	0.000	0.000
1155935.000	0.000	-0.220	0.781	150.000	0.000	0.000
1155965.000	0.000	-0.190	0.672	150.000	0.000	0.000
1155965.000	0.000	-0.190	0.672	150.000	0.000	0.000
1155965.000	0.000	-0.190	0.672	150.000	0.000	0.000
1155995.000	0.000	-0.160	0.547	150.000	0.000	0.000
1155995.000	0.000	-0.160	0.547	150.000	0.000	0.000
1155995.000	0.000	-0.160	0.547	150.000	0.000	0.000
1156025.000	0.000	-0.120	0.406	150.000	0.000	0.000
1156025.000	0.000	-0.120	0.406	150.000	0.000	0.000
1156025.000	0.000	-0.120	0.406	150.000	0.000	0.000
1156055.000	0.000	-0.080	0.266	150.000	0.000	0.000
1156055.000	0.000	-0.080	0.266	150.000	0.000	0.000
1156055.000	0.000	-0.080	0.266	150.000	0.000	0.000
1156085.000	0.000	-0.040	0.109	150.000	0.000	0.000
1156085.000	0.000	-0.040	0.109	150.000	0.000	0.000
1156085.000	0.000	-0.040	0.109	150.000	0.000	0.000
1156115.000	0.000	0.000	-0.031	150.000	0.000	0.000
1156115.000	0.000	0.000	-0.031	150.000	0.000	0.000
1156115.000	0.000	0.000	-0.031	150.000	0.000	0.000
1156145.000	0.000	0.050	-0.187	150.000	0.000	0.000
1156145.000	0.000	0.050	-0.187	150.000	0.000	0.000
1156145.000	0.000	0.050	-0.187	150.000	0.000	0.000
1156175.000	0.000	0.090	-0.328	150.000	0.000	0.000
1156175.000	0.000	0.090	-0.328	150.000	0.000	0.000
1156175.000	0.000	0.090	-0.328	150.000	0.000	0.000
1156205.000	0.000	0.120	-0.453	150.000	0.000	0.000
1156205.000	0.000	0.120	-0.453	150.000	0.000	0.000
1156205.000	0.000	0.120	-0.453	150.000	0.000	0.000
1156235.000	0.000	0.160	-0.578	150.000	0.000	0.000
1156235.000	0.000	0.160	-0.578	150.000	0.000	0.000
1156235.000	0.000	0.160	-0.578	150.000	0.000	0.000
1156265.000	0.000	0.190	-0.687	150.000	0.000	0.000
1156265.000	0.000	0.190	-0.687	150.000	0.000	0.000
1156265.000	0.000	0.190	-0.687	150.000	0.000	0.000
1156295.000	0.000	0.210	-0.781	150.000	0.000	0.000
1156295.000	0.000	0.210	-0.781	150.000	0.000	0.000
1156295.000	0.000	0.210	-0.781	150.000	0.000	0.000
1156325.000	0.000	0.230	-0.844	150.000	0.000	0.000
1156325.000	0.000	0.230	-0.844	150.000	0.000	0.000
1156325.000	0.000	0.230	-0.844	150.000	0.000	0.000
1156355.000	0.000	0.240	-0.891	150.000	0.000	0.000
1156355.000	0.000	0.240	-0.891	150.000	0.000	0.000
1156355.000	0.000	0.240	-0.891	150.000	0.000	0.000
1156385.000	0.000	0.250	-0.906	150.000	0.000	0.000
1156385.000	0.000	0.250	-0.906	150.000	0.000	0.000
1156385.000	0.000	0.250	-0.906	150.000	0.000	0.000
1156415.000	0.000	0.250	-0.906	150.000	0.000	0.000
1156415.000	0.000	0.250	-0.906	150.000	0.000	0.000
1156415.000	0.000	0.250	-0.906	150.000	0.000	0.000
1156445.000	0.000	0.240	-0.875	150.000	0.000	0.000
1156445.000	0.000	0.240	-0.875	150.000	0.000	0.000
1156445.000	0.000	0.240	-0.875	150.000	0.000	0.000
1156475.000	0.000	0.220	-0.828	150.000	0.000	0.000
1156475.000	0.000	0.220	-0.828	150.000	0.000	0.000
1156475.000	0.000	0.220	-0.828	150.000	0.000	0.000
1156505.000	0.000	0.200	-0.750	150.000	0.000	0.000
1156505.000	0.000	0.200	-0.750	150.000	0.000	0.000
1156505.000	0.000	0.200	-0.750	150.000	0.000	0.000
1156535.000	0.000	0.180	-0.672	150.000	0.000	0.000
1156535.000	0.000	0.180	-0.672	150.000	0.000	0.000
1156535.000	0.000	0.180	-0.672	150.000	0.000	0.000
1156565.000	0.000	0.150	-0.562	150.000	0.000	0.000
1156565.000	0.000	0.150	-0.562	150.000	0.000	0.000
1156565.000	0.000	0.150	-0.562	150.000	0.000	0.000
1156595.000	0.000	0.120	-0.453	150.000	0.000	0.000
1156595.000	0.000	0.120	-0.453	150.000	0.000	0.000
1156595.000	0.000	0.120	-0.453	150.000	0.000	0.000
1156625.000	0.000	0.080	-0.312	150.000	0.000	0.000
1156625.000	0.000	0.080	-0.312	150.000	0.000	0.000
1156625.000	0.000	0.080	-0.312	150.000	0.000	0.000
1156655.000	0.000	0.040	-0.172	150.000	0.000	0.000
1156655.000	0.000	0.040	-0.172	150.000	0.000	0.000
1156655.000	0.000	0.040	-0.172	150.000	0.000	0.000
1156685.000	0.000	0.000	-0.031	150.000	0.000	0.000
1156685.000	0.000	0.000	-0.031	150.000	0.000	0.000
1156685.000	0.000	0.000	-0.031	150.000	0.000	0.000
1156715.000	0.000	-0.040	0.109	150.000	0.000	0.000
1156715.000	0.000	-0.040	0.109	150.000	0.000	0.000
1156715.000	0.000	-0.040	0.109	150.000	0.000	0.000
1156745.000	0.000	-0.080	0.250	150.000	0.000	0.000
1156745.000	0.000	-0.080	0.250	150.000	0.000	0.000
1156745.000	0.000	-0.080	0.250	150.000	0.000	0.000
1156775.000	0.000	-0.110	0.375	150.000	0.000	0.000
1156775.000	0.000	-0.110	0.375	150.000	0.000	0.000
1156775.000	0.000	-0.110	0.375	150.000	0.000	0.000
1156805.000	0.000	-0.150	0.500	150.000	0.000	0.000
1156805.000	0.000	-0.150	0.500	150.000	0.000	0.000
1156805.000	0.000	-0.150	0.500	150.000	0.000	0.000
1156835.000	0.000	-0.180	0.625	150.000	0.000	0.000
1156835.000	0.000	-0.180	0.625	150.000	0.000	0.000
1156835.000	0.000	-0.180	0.625	150.000	0.000	0.000
1156865.000	0.000	-0.210	0.719	150.000	0.000	0.000
1156865.000	0.000	-0.210	0.719	150.000	0.000	0.000
1156865.000	0.000	-0.210	0.719	150.000	0.000	0.000
1156895.000	0.000	-0.230	0.812	150.000	0.000	0.000
1156895.000	0.000	-0.230	0.812	150.000	0.000	0.000
1156895.000	0.000	-0.230	0.812	150.000	0.000	0.000
1156925.000	0.000	-0.250	0.875	150.000	0.000	0.000
1156925.000	0.000	-0.250	0.875	150.000	0.000	0.000
1156925.000	0.000	-0.250	0.875	150.000	0.000	0.000
1156955.000	0.000	-0.270	0.922	150.000	0.000	0.000
1156955.000	0.000	-0.270	0.922	150.000	0.000	0.000
1156955.000	0.000	-0.270	0.922	150.000	0.000	0.000
1156985.000	0.000	-0.270	0.953	150.000	0.000	0.000
1156985.000	0.000	-0.270	0.953	150.000	0.000	0.000
1156985.000	0.000	-0.270	0.953	150.000	0.000	0.000
1157015.000	0.000	-0.280	0.969	150.000	0.000	0.000
1157015.000	0.000	-0.280	0.969	150.000	0.000	0.000
1157015.000	0.000	-0.280	0.969	150.000	0.000	0.000
1157045.000	0.000	-0.270	0.953	150.000	0.000	0.000
1157045.000	0.000	-0.270	0.953	150.000	0.000	0.000
1157045.000	0.000	-0.270	0.953	150.000	0.000	0.000
1157075.000	0.000	-0.260	0.906	150.000	0.000	0.000
1157075.000	0.000	-0.260	0.906	150.000	0.000	0.000
1157075.000	0.000	-0.260	0.906	150.000	0.000	0.000
1157105.000	0.000	-0.250	0.859	150.000	0.000	0.000
1157105.000	0.000	-0.250	0.859	150.000	0.000	0.000
1157105.000	0.000	-0.250	0.859	150.000	0.000	0.000
1157135.000	0.000	-0.220	0.781	150.000	0.000	0.000
1157135.000	0.000	-0.220	0.781	150.000	0.000	0.000
1157135.000	0.000	-0.220	0.781	150.000	0.000	0.000
1157165.000	0.000	-0.200	0.687	150.000	0.000	0.000
1157165.000	0.000	-0.200	0.687	150.000	0.000	0.000
1157165.000	0.000	-0.200	0.687	150.000	0.000	0.000
1157195.000	0.000	-0.170	0.594	150.000	0.000	0.000
1157195.000	0.000	-0.170	0.594	150.000	0.000	0.000
1157195.000	0.000	-0.170	0.594	150.000	0.000	0.000
1157225.000	0.000	-0.140	0.469	150.000	0.000	0.000
1157225.000	0.000	-0.140	0.469	150.000	0.000	0.000
1157225.000	0.000	-0.140	0.469	150.000	0.000	0.000
1157255.000	0.000	-0.100	0.359	150.000	0.000	0.000
1157255.000	0.000	-0.100	0.359	150.000	0.000	0.000
1157255.000	0.000	-0.100	0.359	150.000	0.000	0.000
1157285.000	0.000	-0.070	0.219	150.000	0.000	0.000
1157285.000	0.000	-0.070	0.219	150.000	0.000	0.000
1157285.000	0.000	-0.070	0.219	150.000	0.000	0.000
1157315.000	0.000	-0.030	0.094	150.000	0.000	0.000
1157315.000	0.000	-0.030	0.094	150.000	0.000	0.000
1157315.000	0.000	-0.030	0.094	150.000	0.000	0.000
1157345.000	0.000	0.010	-0.047	150.000	0.000	0.000
1157345.000	0.000	0.010	-0.047	150.000	0.000	0.000
1157345.000	0.000	0.010	-0.047	150.000	0.000	0.000
1157375.000	0.000	0.040	-0.172	150.000	0.000	0.000
1157375.000	0.000	0.040	-0.172	150.000	0.000	0.000
1157375.000	0.000	0.040	-0.172	150.000	0.000	0.000
1157405.000	0.000	0.080	-0.297	150.000	0.000	0.000
1157405.000	0.000	0.080	-0.297	150.000	0.000	0.000
1157405.000	0.000	0.080	-0.297	150.000	0.000	0.000
1157435.000	0.000	0.110	-0.422	150.000	0.000	0.000
1157435.000	0.000	0.110	-0.422	150.000	0.000	0.000
1157435.000	0.000	0.110	-0.422	150.000	0.000	0.000
1157465.000	0.000	0.140	-0.516	150.000	0.000	0.000
1157465.000	0.000	0.140	-0.516	150.000	0.000	0.000
1157465.000	0.000	0.140	-0.516	150.000	0.000	0.000
1157495.000	0.000	0.160	-0.609	150.000	0.000	0.000
1157495.000	0.000	0.160	-0.609	150.000	0.000	0.000
1157495.000	0.000	0.160	-0.609	150.000	0.000	0.000
1157525.000	0.000	0.190	-0.687	150.000	0.000	0.000
1157525.000	0.000	0.190	-0.687	150.000	0.000	0.000
1157525.000	0.000	0.190	-0.687	150.000	0.000	0.000
1157555.000	0.000	0.200	-0.734	150.000	0.000	0.000
1157555.000	0.000	0.200	-0.734	150.000	0.000	0.000
1157555.000	0.000	0.200	-0.734	150.000	0.000	0.000
1157585.000	0.000	0.210	-0.781	150.000	0.000	0.000
1157585.000	0.000	0.210	-0.781	150.000	0.000	0.000
1157585.000	0.000	0.210	-0.781	150.000	0.000	0.000
1157615.000	0.000	0.220	-0.797	150.000	0.000	0.000
1157615.000	0.000	0.220	-0.797	150.000	0.000	0.000
1157615.000	0.000	0.220	-0.797	150.000	0.000	0.000
1157645.000	0.000	0.210	-0.797	150.000	0.000	0.000
1157645.000	0.000	0.210	-0.797	150.000	0.000	0.000
1157645.000	0.000	0.210	-0.797	150.000	0.000	0.000
1157675.000	0.000	0.210	-0.766	150.000	0.000	0.000
1157675.000	0.000	0.210	-0.766	150.000	0.000	0.000
1157675.000	0.000	0.210	-0.766	150.000	0.000	0.000
1157705.000	0.000	0.190	-0.719	150.000	0.000	0.000
1157705.000	0.000	0.190	-0.719	150.000	0.000	0.000
1157705.000	0.000	0.190	-0.719	150.000	0.000	0.000
1157735.000	0.000	0.180	-0.672	150.000	0.000	0.000
1157735.000	0.000	0.180	-0.672	150.000	0.000	0.000
1157735.000	0.000	0.180	-0.672	150.000	0.000	0.000
1157765.000	0.000	0.160	-0.594	150.000	0.000	0.000
1157765.000	0.000	0.160	-0.594	150.000	0.000	0.000
1157765.000	0.000	0.160	-0.594	150.000	0.000	0.000
1157795.000	0.000	0.130	-0.500	150.000	0.000	0.000
1157795.000	0.000	0.130	-0.500	150.000	0.000	0.000
1157795.000	0.000	0.130	-0.500	150.000	0.000	0.000
1157825.000	0.000	0.100	-0.391	150.000	0.000	0.000
1157825.000	0.000	0.100	-0.391	150.000	0.000	0.000
1157825.000	0.000	0.100	-0.391	150.000	0.000	0.000
1157855.000	0.000	0.070	-0.281	150.000	0.000	0.000
1157855.000	0.000	0.070	-0.281	150.000	0.000	0.000
1157855.000	0.000	0.070	-0.281	150.000	0.000	0.000
1157885.000	0.000	0.040	-0.156	150.000	0.000	0.000
1157885.000	0.000	0.040	-0.156	150.000	0.000	0.000
1157885.000	0.000	0.040	-0.156	150.000	0.000	0.000
1157915.000	0.000	0.000	-0.031	150.000	0.000	0.000
1157915.000	0.000	0.000	-0.031	150.000	0.000	0.000
1157915.000	0.000	0.000	-0.031	150.000	0.000	0.000
1157945.000	0.000	-0.030	0.094	150.000	0.000	0.000
1157945.000	0.000	-0.030	0.094	150.000	0.000	0.000
1157945.000	0.000	-0.030	0.094	150.000	0.000	0.000
1157975.000	0.000	-0.070	0.219	150.000	0.000	0.000
1157975.000	0.000	-0.070	0.219	150.000	0.000	0.000
1157975.000	0.000	-0.070	0.219	150.000	0.000	0.000
1158005.000	0.000	-0.100	0.328	150.000	0.000	0.000
1158005.000	0.000	-0.100	0.328	150.000	0.000	0.000
1158005.000	0.000	-0.100	0.328	150.000	0.000	0.000
1158035.000	0.000	-0.130	0.437	150.000	0.000	0.000
1158035.000	0.000	-0.130	0.437	150.000	0.000	0.000
1158035.000	0.000	-0.130	0.437	150.000	0.000	0.000
1158065.000	0.000	-0.160	0.531	150.000	0.000	0.000
1158065.000	0.000	-0.160	0.531	150.000	0.000	0.000
1158065.000	0.000	-0.160	0.531	150.000	0.000	0.000
1158095.000	0.000	-0.180	0.625	150.000	0.000	0.000
1158095.000	0.000	-0.180	0.625	150.000	0.000	0.000
1158095.000	0.000	-0.180	0.625	150.000	0.000	0.000
1158125.000	0.000	-0.200	0.703	150.000	0.000	0.000
1158125.000	0.000	-0.200	0.703	150.000	0.000	0.000
1158125.000	0.000	-0.200	0.703	150.000	0.000	0.000
1158155.000	0.000	-0.220	0.766	150.000	0.000	0.000
1158155.000	0.000	-0.220	0.766	150.000	0.000	0.000
1158155.000	0.000	-0.220	0.766	150.000	0.000	0.000
1158185.000	0.000	-0.230	0.797	150.000	0.000	0.000
1158185.000	0.000	-0.230	0.797	150.000	0.000	0.000
1158185.000	0.000	-0.230	0.797	150.000	0.000	0.000
1158215.000	0.000	-0.240	0.828	150.000	0.000	0.000
1158215.000	0.000	-0.240	0.828	150.000	0.000	0.000
1158215.000	0.000	-0.240	0.828	150.000	0.000	0.000
1158245.000	0.000	-0.240	0.828	150.000	0.000	0.000
1158245.000	0.000	-0.240	0.828	150.000	0.000	0.000
1158245.000	0.000	-0.240	0.828	150.000	0.000	0.000
1158275.000	0.000	-0.240	0.828	150.000	0.000	0.000
1158275.000	0.000	-0.240	0.828	150.000	0.000	0.000
1158275.000	0.000	-0.240	0.828	150.000	0.000	0.000
1158305.000	0.000	-0.230	0.797	150.000	0.000	0.000
1158305.000	0.000	-0.230	0.797	150.000	0.000	0.000
1158305.000	0.000	-0.230	0.797	150.000	0.000	0.000
1158335.000	0.000	-0.220	0.750	150.000	0.000	0.000
1158335.000	0.000	-0.220	0.750	150.000	0.000	0.000
1158335.000	0.000	-0.220	0.750	150.000	0.000	0.000
1158365.000	0.000	-0.200	0.687	150.000	0.000	0.000
1158365.000	0.000	-0.200	0.687	150.000	0.000	0.000
1158365.000	0.000	-0.200	0.687	150.000	0.000	0.000
1158395.000	0.000	-0.180	0.609	150.000	0.000	0.000
1158395.000	0.000	-0.180	0.609	150.000	0.000	0.000
1158395.000	0.000	-0.180	0.609	150.000	0.000	0.000
1158425.000	0.000	-0.150	0.531	150.000	0.000	0.000
1158425.000	0.000	-0.150	0.531	150.000	0.000	0.000
1158425.000	0.000	-0.150	0.531	150.000	0.000	0.000
1158455.000	0.000	-0.130	0.437	150.000	0.000	0.000
1158455.000	0.000	-0.130	0.437	150.000	0.000	0.000
1158455.000	0.000	-0.130	0.437	150.000	0.000	0.000
1158485.000	0.000	-0.100	0.328	150.000	0.000	0.000
1158485.000	0.000	-0.100	0.328	150.000	0.000	0.000
1158485.000	0.000	-0.100	0.328	150.000	0.000	0.000
1158515.000	0.000	-0.070	0.219	150.000	0.000	0.000
1158515.000	0.000	-0.070	0.219	150.000	0.000	0.000
1158515.000	0.000	-0.070	0.219	150.000	0.000	0.000
1158545.000	0.000	-0.040	0.109	150.000	0.000	0.000
1158545.000	0.000	-0.040	0.109	150.000	0.000	0.000
1158545.000	0.000	-0.040	0.109	150.000	0.000	0.000
1158575.000	0.000	0.000	0.000	150.000	0.000	0.000
1158575.000	0.000	0.000	0.000	150.000	0.000	0.000
1158575.000	0.000	0.000	0.000	150.000	0.000	0.000
1158605.000	0.000	0.030	-0.125	150.000	0.000	0.000
1158605.000	0.000	0.030	-0.125	150.000	0.000	0.000
1158605.000	0.000	0.030	-0.125	150.000	0.000	0.000
1158635.000	0.000	0.060	-0.234	150.000	0.000	0.000
1158635.000	0.000	0.060	-0.234	150.000	0.000	0.000
1158635.000	0.000	0.060	-0.234	150.000	0.000	0.000
1158665.000	0.000	0.090	-0.328	150.000	0.000	0.000
1158665.000	0.000	0.090	-0.328	150.000	0.000	0.000
1158665.000	0.000	0.090	-0.328	150.000	0.000	0.000
1158695.000	0.000	0.110	-0.422	150.000	0.000	0.000
1158695.000	0.000	0.110	-0.422	150.000	0.000	0.000
1158695.000	0.000	0.110	-0.422	150.000	0.000	0.000
1158725.000	0.000	0.130	-0.500	150.000	0.000	0.000
1158725.000	0.000	0.130	-0.500	150.000	0.000	0.000
1158725.000	0.000	0.130	-0.500	150.000	0.000	0.000
1158755.000	0.000	0.150	-0.562	150.000	0.000	0.000
1158755.000	0.000	0.150	-0.562	150.000	0.000	0.000
1158755.000	0.000	0.150	-0.562	150.000	0.000	0.000
1158785.000	0.000	0.160	-0.609	150.000	0.000	0.000
1158785.000	0.000	0.160	-0.609	150.000	0.000	0.000
1158785.000	0.000	0.160	-0.609	150.000	0.000	0.000
1158815.000	0.000	0.170	-0.641	150.000	0.000	0.000
1158815.000	0.000	0.170	-0.641	150.000	0.000	0.000
1158815.000	0.000	0.170	-0.641	150.000	0.000	0.000
1158845.000	0.000	0.180	-0.656	150.000	0.000	0.000
1158845.000	0.000	0.180	-0.656	150.000	0.000	0.000
1158845.000	0.000	0.180	-0.656	150.000	0.000	0.000
1158875.000	0.000	0.170	-0.656	150.000	0.000	0.000
1158875.000	0.000	0.170	-0.656	150.000	0.000	0.000
1158875.000	0.000	0.170	-0.656	150.000	0.000	0.000
1158905.000	0.000	0.170	-0.625	150.000	0.000	0.000
1158905.000	0.000	0.170	-0.625	150.000	0.000	0.000
1158905.000	0.000	0.170	-0.625	150.000	0.000	0.000
1158935.000	0.000	0.160	-0.594	150.000	0.000	0.000
1158935.000	0.000	0.160	-0.594	150.000	0.000	0.000
1158935.000	0.000	0.160	-0.594	150.000	0.000	0.000
1158965.000	0.000	0.140	-0.547	150.000	0.000	0.000
1158965.000	0.000	0.140	-0.547	150.000	0.000	0.000
1158965.000	0.000	0.140	-0.547	150.000	0.000	0.000
1158995.000	0.000	0.130	-0.484	150.000	0.000	0.000
1158995.000	0.000	0.130	-0.484	150.000	0.000	0.000
1158995.000	0.000	0.130	-0.484	150.000	0.000	0.000
1159025.000	0.000	0.100	-0.406	150.000	0.000	0.000
1159025.000	0.000	0.100	-0.406	150.000	0.000	0.000
1159025.000	0.000	0.100	-0.406	150.000	0.000	0.000
1159055.000	0.000	0.080	-0.312	150.000	0.000	0.000
1159055.000	0.000	0.080	-0.312	150.000	0.000	0.000
1159055.000	0.000	0.080	-0.312	150.000	0.000	0.000
1159085.000	0.000	0.050	-0.219	150.000	0.000	0.000
1159085.000	0.000	0.050	-0.219	150.000	0.000	0.000
1159085.000	0.000	0.050	-0.219	150.000	0.000	0.000
1159115.000	0.000	0.020	-0.109	150.000	0.000	0.000
1159115.000	0.000	0.020	-0.109	150.000	0.000	0.000
1159115.000	0.000	0.020	-0.109	150.000	0.000	0.000
1159145.000	0.000	-0.010	0.000	150.000	0.000	0.000
1159145.000	0.000	-0.010	0.000	150.000	0.000	0.000
1159145.000	0.000	-0.010	0.000	150.000	0.000	0.000
1159175.000	0.000	-0.040	0.094	150.000	0.000	0.000
1159175.000	0.000	-0.040	0.094	150.000	0.000	0.000
1159175.000	0.000	-0.040	0.094	150.000	0.000	0.000
1159205.000	0.000	-0.070	0.203	150.000	0.000	0.000
1159205.000	0.000	-0.070	0.203	150.000	0.000	0.000
1159205.000	0.000	-0.070	0.203	150.000	0.000	0.000
1159235.000	0.000	-0.090	0.297	150.000	0.000	0.000
1159235.000	0.000	-0.090	0.297	150.000	0.000	0.000
1159235.000	0.000	-0.090	0.297	150.000	0.000	0.000
1159265.000	0.000	-0.120	0.406	150.000	0.000	0.000
1159265.000	0.000	-0.120	0.406	150.000	0.000	0.000
1159265.000	0.000	-0.120	0.406	150.000	0.000	0.000
1159295.000	0.000	-0.140	0.484	150.000	0.000	0.000
1159295.000	0.000	-0.140	0.484	150.000	0.000	0.000
1159295.000	0.000	-0.140	0.484	150.000	0.000	0.000
1159325.000	0.000	-0.170	0.562	150.000	0.000	0.000
1159325.000	0.000	-0.170	0.562	150.000	0.000	0.000
1159325.000	0.000	-0.170	0.562	150.000	0.000	0.000
1159355.000	0.000	-0.180	0.625	150.000	0.000	0.000
1159355.000	0.000	-0.180	0.625	150.000	0.000	0.000
1159355.000	0.000	-0.180	0.625	150.000	0.000	0.000
1159385.000	0.000	-0.200	0.672	150.000	0.000	0.000
1159385.000	0.000	-0.200	0.672	150.000	0.000	0.000
1159385.000	0.000	-0.200	0.672	150.000	0.000	0.000
1159415.000	0.000	-0.210	0.719	150.000	0.000	0.000
1159415.000	0.000	-0.210	0.719	150.000	0.000	0.000
1159415.000	0.000	-0.210	0.719	150.000	0.000	0.000
1159445.000	0.000	-0.210	0.734	150.000	0.000	0.000
1159445.000	0.000	-0.210	0.734	150.000	0.000	0.000
1159445.000	0.000	-0.210	0.734	150.000	0.000	0.000
1159475.000	0.000	-0.210	0.750	150.000	0.000	0.000
1159475.000	0.000	-0.210	0.750	150.000	0.000	0.000
1159475.000	0.000	-0.210	0.750	150.000	0.000	0.000
1159505.000	0.000	-0.210	0.734	150.000	0.000	0.000
1159505.000	0.000	-0.210	0.734	150.000	0.000	0.000
1159505.000	0.000	-0.210	0.734	150.000	0.000	0.000
1159535.000	0.000	-0.200	0.703	150.000	0.000	0.000
1159535.000	0.000	-0.200	0.703	150.000	0.000	0.000
1159535.000	0.000	-0.200	0.703	150.000	0.000	0.000
1159565.000	0.000	-0.190	0.672	150.000	0.000	0.000
1159565.000	0.000	-0.190	0.672	150.000	0.000	0.000
1159565.000	0.000	-0.190	0.672	150.000	0.000	0.000
1159595.000	0.000	-0.180	0.609	150.000	0.000	0.000
1159595.000	0.000	-0.180	0.609	150.000	0.000	0.000
1159595.000	0.000	-0.180	0.609	150.000	0.000	0.000
1159625.000	0.000	-0.160	0.547	150.000	0.000	0.000
1159625.000	0.000	-0.160	0.547	150.000	0.000	0.000
1159625.000	0.000	-0.160	0.547	150.000	0.000	0.000
1159655.000	0.000	-0.140	0.469	150.000	0.000	0.000
1159655.000	0.000	-0.140	0.469	150.000	0.000	0.000
1159655.000	0.000	-0.140	0.469	150.000	0.000	0.000
1159685.000	0.000	-0.110	0.391	150.000	0.000	0.000
1159685.000	0.000	-0.110	0.391	150.000	0.000	0.000
1159685.000	0.000	-0.110	0.391	150.000	0.000	0.000
1159715.000	0.000	-0.090	0.297	150.000	0.000	0.000
1159715.000	0.000	-0.090	0.297	150.000	0.000	0.000
1159715.000	0.000	-0.090	0.297	150.000	0.000	0.000
1159745.000	0.000	-0.060	0.187	150.000	0.000	0.000
1159745.000	0.000	-0.060	0.187	150.000	0.000	0.000
1159745.000	0.000	-0.060	0.187	150.000	0.000	0.000
1159775.000	0.000	-0.030	0.094	150.000	0.000	0.000
1159775.000	0.000	-0.030	0.094	150.000	0.000	0.000
1159775.000	0.000	-0.030	0.094	150.000	0.000	0.000
1159805.000	0.000	0.000	-0.016	150.000	0.000	0.000
1159805.000	0.000	0.000	-0.016	150.000	0.000	0.000
1159805.000	0.000	0.000	-0.016	150.000	0.000	0.000
1159835.000	0.000	0.030	-0.109	150.000	0.000	0.000
1159835.000	0.000	0.030	-0.109	150.000	0.000	0.000
1159835.000	0.000	0.030	-0.109	150.000	0.000	0.000
1159865.000	0.000	0.050	-0.203	150.000	0.000	0.000
1159865.000	0.000	0.050	-0.203	150.000	0.000	0.000
1159865.000	0.000	0.050	-0.203	150.000	0.000	0.000
1159895.000	0.000	0.080	-0.297	150.000	0.000	0.000
1159895.000	0.000	0.080	-0.297	150.000	0.000	0.000
1159895.000	0.000	0.080	-0.297	150.000	0.000	0.000
1159925.000	0.000	0.100	-0.391	150.000	0.000	0.000
1159925.000	0.000	0.100	-0.391	150.000	0.000	0.000
1159925.000	0.000	0.100	-0.391	150.000	0.000	0.000
1159955.000	0.000	0.120	-0.453	150.000	0.000	0.000
1159955.000	0.000	0.120	-0.453	150.000	0.000	0.000
1159955.000	0.000	0.120	-0.453	150.000	0.000	0.000
1159985.000	0.000	0.140	-0.516	150.000	0.000	0.000
1159985.000	0.000	0.140	-0.516	150.000	0.000	0.000
1159985.000	0.000	0.140	-0.516	150.000	0.000	0.000
1160015.000	0.000	0.150	-0.562	150.000	0.000	0.000
1160015.000	0.000	0.150	-0.562	150.000	0.000	0.000
1160015.000	0.000	0.150	-0.562	150.000	0.000	0.000
1160045.000	0.000	0.160	-0.594	150.000	0.000	0.000
1160045.000	0.000	0.160	-0.594	150.000	0.000	0.000
1160045.000	0.000	0.160	-0.594	150.000	0.000	0.000
1160075.000	0.000	0.160	-0.594	150.000	0.000	0.000
1160075.000	0.000	0.160	-0.594	150.000	0.000	0.000
1160075.000	0.000	0.160	-0.594	150.000	0.000	0.000
1160105.000	0.000	0.160	-0.594	150.000	0.000	0.000
1160105.000	0.000	0.160	-0.594	150.000	0.000	0.000
1160105.000	0.000	0.160	-0.594	150.000	0.000	0.000
1160135.000	0.000	0.150	-0.578	150.000	0.000	0.000
1160135.000	0.000	0.150	-0.578	150.000	0.000	0.000
1160135.000	0.000	0.150	-0.578	150.000	0.000	0.000
1160165.000	0.000	0.140	-0.547	150.000	0.000	0.000
1160165.000	0.000	0.140	-0.547	150.000	0.000	0.000
1160165.000	0.000	0.140	-0.547	150.000	0.000	0.000
1160195.000	0.000	0.130	-0.484	150.000	0.000	0.000
1160195.000	0.000	0.130	-0.484	150.000	0.000	0.000
1160195.000	0.000	0.130	-0.484	150.000	0.000	0.000
1160225.000	0.000	0.110	-0.422	150.000	0.000	0.000
1160225.000	0.000	0.110	-0.422	150.000	0.000	0.000
1160225.000	0.000	0.110	-0.422	150.000	0.000	0.000
1160255.000	0.000	0.090	-0.359	150.000	0.000	0.000
1160255.000	0.000	0.090	-0.359	150.000	0.000	0.000
1160255.000	0.000	0.090	-0.359	150.000	0.000	0.000
1160285.000	0.000	0.070	-0.266	150.000	0.000	0.000
1160285.000	0.000	0.070	-0.266	150.000	0.000	0.000
1160285.000	0.000	0.070	-0.266	150.000	0.000	0.000
1160315.000	0.000	0.040	-0.187	150.000	0.000	0.000
1160315.000	0.000	0.040	-0.187	150.000	0.000	0.000
1160315.000	0.000	0.040	-0.187	150.000	0.000	0.000
1160345.000	0.000	0.020	-0.094	150.000	0.000	0.000
1160345.000	0.000	0.020	-0.094	150.000	0.000	0.000
1160345.000	0.000	0.020	-0.094	150.000	0.000	0.000
1160375.000	0.000	-0.010	0.016	150.000	0.000	0.000
1160375.000	0.000	-0.010	0.016	150.000	0.000	0.000
1160375.000	0.000	-0.010	0.016	150.000	0.000	0.000
1160405.000	0.000	-0.040	0.109	150.000	0.000	0.000
1160405.000	0.000	-0.040	0.109	150.000	0.000	0.000
1160405.000	0.000	-0.040	0.109	150.000	0.000	0.000
1160435.000	0.000	-0.060	0.203	150.000	0.000	0.000
1160435.000	0.000	-0.060	0.203	150.000	0.000	0.000
1160435.000	0.000	-0.060	0.203	150.000	0.000	0.000
1160465.000	0.000	-0.090	0.281	150.000	0.000	0.000
1160465.000	0.000	-0.090	0.281	150.000	0.000	0.000
1160465.000	0.000	-0.090	0.281	150.000	0.000	0.000
1160495.000	0.000	-0.110	0.359	150.000	0.000	0.000
1160495.000	0.000	-0.110	0.359	150.000	0.000	0.000
1160495.000	0.000	-0.110	0.359	150.000	0.000	0.000
1160525.000	0.000	-0.130	0.437	150.000	0.000	0.000
1160525.000	0.000	-0.130	0.437	150.000	0.000	0.000
1160525.000	0.000	-0.130	0.437	150.000	0.000	0.000
1160555.000	0.000	-0.150	0.500	150.000	0.000	0.000
1160555.000	0.000	-0.150	0.500	150.000	0.000	0.000
1160555.000	0.000	-0.150	0.500	150.000	0.000	0.000
1160585.000	0.000	-0.160	0.562	150.000	0.000	0.000
1160585.000	0.000	-0.160	0.562	150.000	0.000	0.000
1160585.000	0.000	-0.160	0.562	150.000	0.000	0.000
1160615.000	0.000	-0.170	0.594	150.000	0.000	0.000
1160615.000	0.000	-0.170	0.594	150.000	0.000	0.000
1160615.000	0.000	-0.170	0.594	150.000	0.000	0.000
1160645.000	0.000	-0.180	0.625	150.000	0.000	0.000
1160645.000	0.000	-0.180	0.625	150.000	0.000	0.000
1160645.000	0.000	-0.180	0.625	150.000	0.000	0.000
1160675.000	0.000	-0.190	0.641	150.000	0.000	0.000
1160675.000	0.000	-0.190	0.641	150.000	0.000	0.000
1160675.000	0.000	-0.190	0.641	150.000	0.000	0.000
1160705.000	0.000	-0.190	0.641	150.000	0.000	0.000
1160705.000	0.000	-0.190	0.641	150.000	0.000	0.000
1160705.000	0.000	-0.190	0.641	150.000	0.000	0.000
1160735.000	0.000	-0.180	0.625	150.000	0.000	0.000
1160735.000	0.000	-0.180	0.625	150.000	0.000	0.000
1160735.000	0.000	-0.180	0.625	150.000	0.000	0.000
1160765.000	0.000	-0.180	0.609	150.000	0.000	0.000
1160765.000	0.000	-0.180	0.609	150.000	0.000	0.000
1160765.000	0.000	-0.180	0.609	150.000	0.000	0.000
1160795.000	0.000	-0.170	0.562	150.000	0.000	0.000
1160795.000	0.000	-0.170	0.562	150.000	0.000	0.000
1160795.000	0.000	-0.170	0.562	150.000	0.000	0.000
1160825.000	0.000	-0.150	0.516	150.000	0.000	0.000
1160825.000	0.000	-0.150	0.516	150.000	0.000	0.000
1160825.000	0.000	-0.150	0.516	150.000	0.000	0.000
1160855.000	0.000	-0.130	0.453	150.000	0.000	0.000
1160855.000	0.000	-0.130	0.453	150.000	0.000	0.000
1160855.000	0.000	-0.130	0.453	150.000	0.000	0.000
1160885.000	0.000	-0.120	0.391	150.000	0.000	0.000
1160885.000	0.000	-0.120	0.391	150.000	0.000	0.000
1160885.000	0.000	-0.120	0.391	150.000	0.000	0.000
1160915.000	0.000	-0.090	0.312	150.000	0.000	0.000
1160915.000	0.000	-0.090	0.312	150.000	0.000	0.000
1160915.000	0.000	-0.090	0.312	150.000	0.000	0.000
1160945.000	0.000	-0.070	0.234	150.000	0.000	0.000
1160945.000	0.000	-0.070	0.234	150.000	0.000	0.000
1160945.000	0.000	-0.070	0.234	150.000	0.000	0.000
1160975.000	0.000	-0.050	0.156	150.000	0.000	0.000
1160975.000	0.000	-0.050	0.156	150.000	0.000	0.000
1160975.000	0.000	-0.050	0.156	150.000	0.000	0.000
1161005.000	0.000	-0.020	0.062	150.000	0.000	0.000
1161005.000	0.000	-0.020	0.062	150.000	0.000	0.000
1161005.000	0.000	-0.020	0.062	150.000	0.000	0.000
1161035.000	0.000	0.000	-0.016	150.000	0.000	0.000
1161035.000	0.000	0.000	-0.016	150.000	0.000	0.000
1161035.000	0.000	0.000	-0.016	150.000	0.000	0.000
1161065.000	0.000	0.020	-0.109	150.000	0.000	0.000
1161065.000	0.000	0.020	-0.109	150.000	0.000	0.000
1161065.000	0.000	0.020	-0.109	150.000	0.000	0.000
1161095.000	0.000	0.050	-0.187	150.000	0.000	0.000
1161095.000	0.000	0.050	-0.187	150.000	0.000	0.000
1161095.000	0.000	0.050	-0.187	150.000	0.000	0.000
1161125.000	0.000	0.070	-0.266	150.000	0.000	0.000
1161125.000	0.000	0.070	-0.266	150.000	0.000	0.000
1161125.000	0.000	0.070	-0.266	150.000	0.000	0.000
1161155.000	0.000	0.090	-0.328	150.000	0.000	0.000
1161155.000	0.000	0.090	-0.328	150.000	0.000	0.000
1161155.000	0.000	0.090	-0.328	150.000	0.000	0.000
1161185.000	0.000	0.100	-0.391	150.000	0.000	0.000
1161185.000	0.000	0.100	-0.391	150.000	0.000	0.000
1161185.000	0.000	0.100	-0.391	150.000	0.000	0.000
1161215.000	0.000	0.110	-0.437	150.000	0.000	0.000
1161215.000	0.000	0.110	-0.437	150.000	0.000	0.000
1161215.000	0.000	0.110	-0.437	150.000	0.000	0.000
1161245.000	0.000	0.120	-0.469	150.000	0.000	0.000
1161245.000	0.000	0.120	-0.469	150.000	0.000	0.000
1161245.000	0.000	0.120	-0.469	150.000	0.000	0.000
1161275.000	0.000	0.130	-0.484	150.000	0.000	0.000
1161275.000	0.000	0.130	-0.484	150.000	0.000	0.000
1161275.000	0.000	0.130	-0.484	150.000	0.000	0.000
1161305.000	0.000	0.130	-0.484	150.000	0.000	0.000
1161305.000	0.000	0.130	-0.484	150.000	0.000	0.000
1161305.000	0.000	0.130	-0.484	150.000	0.000	0.000
1161335.000	0.000	0.130	-0.484	150.000	0.000	0.000
1161335.000	0.000	0.130	-0.484	150.000	0.000	0.000
1161335.000	0.000	0.130	-0.484	150.000	0.000	0.000
1161365.000	0.000	0.120	-0.469	150.000	0.000	0.000
1161365.000	0.000	0.120	-0.469	150.000	0.000	0.000
1161365.000	0.000	0.120	-0.469	150.000	0.000	0.000
1161395.000	0.000	0.110	-0.422	150.000	0.000	0.000
1161395.000	0.000	0.110	-0.422	150.000	0.000	0.000
1161395.000	0.000	0.110	-0.422	150.000	0.000	0.000
1161425.000	0.000	0.100	-0.391	150.000	0.000	0.000
1161425.000	0.000	0.100	-0.391	150.000	0.000	0.000
1161425.000	0.000	0.100	-0.391	150.000	0.000	0.000
1161455.000	0.000	0.080	-0.328	150.000	0.000	0.000
1161455.000	0.000	0.080	-0.328	150.000	0.000	0.000
1161455.000	0.000	0.080	-0.328	150.000	0.000	0.000
1161485.000	0.000	0.070	-0.266	150.000	0.000	0.000
1161485.000	0.000	0.070	-0.266	150.000	0.000	0.000
1161485.000	0.000	0.070	-0.266	150.000	0.000	0.000
1161515.000	0.000	0.050	-0.203	150.000	0.000	0.000
1161515.000	0.000	0.050	-0.203	150.000	0.000	0.000
1161515.000	0.000	0.050	-0.203	150.000	0.000	0.000
1161545.000	0.000	0.030	-0.125	150.000	0.000	0.000
1161545.000	0.000	0.030	-0.125	150.000	0.000	0.000
1161545.000	0.000	0.030	-0.125	150.000	0.000	0.000
1161575.000	0.000	0.000	-0.047	150.000	0.000	0.000
1161575.000	0.000	0.000	-0.047	150.000	0.000	0.000
1161575.000	0.000	0.000	-0.047	150.000	0.000	0.000
1161605.000	0.000	-0.020	0.031	150.000	0.000	0.000
1161605.000	0.000	-0.020	0.031	150.000	0.000	0.000
1161605.000	0.000	-0.020	0.031	150.000	0.000	0.000
1161635.000	0.000	-0.040	0.109	150.000	0.000	0.000
1161635.000	0.000	-0.040	0.109	150.000	0.000	0.000
1161635.000	0.000	-0.040	0.109	150.000	0.000	0.000
1161665.000	0.000	-0.060	0.187	150.000	0.000	0.000
1161665.000	0.000	-0.060	0.187	150.000	0.000	0.000
1161665.000	0.000	-0.060	0.187	150.000	0.000	0.000
1161695.000	0.000	-0.080	0.266	150.000	0.000	0.000
1161695.000	0.000	-0.080	0.266	150.000	0.000	0.000
1161695.000	0.000	-0.080	0.266	150.000	0.000	0.000
1161725.000	0.000	-0.100	0.328	150.000	0.000	0.000
1161725.000	0.000	-0.100	0.328	150.000	0.000	0.000
1161725.000	0.000	-0.100	0.328	150.000	0.000	0.000
1161755.000	0.000	-0.120	0.391	150.000	0.000	0.000
1161755.000	0.000	-0.120	0.391	150.000	0.000	0.000
1161755.000	0.000	-0.120	0.391	150.000	0.000	0.000
1161785.000	0.000	-0.130	0.453	150.000	0.000	0.000
1161785.000	0.000	-0.130	0.453	150.000	0.000	0.000
1161785.000	0.000	-0.130	0.453	150.000	0.000	0.000
1161815.000	0.000	-0.140	0.484	150.000	0.000	0.000
1161815.000	0.000	-0.140	0.484	150.000	0.000	0.000
1161815.000	0.000	-0.140	0.484	150.000	0.000	0.000
1161845.000	0.000	-0.150	0.516	150.000	0.000	0.000
1161845.000	0.000	-0.150	0.516	150.000	0.000	0.000
1161845.000	0.000	-0.150	0.516	150.000	0.000	0.000
1161875.000	0.000	-0.160	0.547	150.000	0.000	0.000
1161875.000	0.000	-0.160	0.547	150.000	0.000	0.000
1161875.000	0.000	-0.160	0.547	150.000	0.000	0.000
1161905.000	0.000	-0.160	0.547	150.000	0.000	0.000
1161905.000	0.000	-0.160	0.547	150.000	0.000	0.000
1161905.000	0.000	-0.160	0.547	150.000	0.000	0.000
1161935.000	0.000	-0.160	0.547	150.000	0.000	0.000
1161935.000	0.000	-0.160	0.547	150.000	0.000	0.000
1161935.000	0.000	-0.160	0.547	150.000	0.000	0.000
1161965.000	0.000	-0.150	0.531	150.000	0.000	0.000
1161965.000	0.000	-0.150	0.531	150.000	0.000	0.000
1161965.000	0.000	-0.150	0.531	150.000	0.000	0.000
1161995.000	0.000	-0.150	0.500	150.000	0.000	0.000
1161995.000	0.000	-0.150	0.500	150.000	0.000	0.000
1161995.000	0.000	-0.150	0.500	150.000	0.000	0.000
1162025.000	0.000	-0.140	0.469	150.000	0.000	0.000
1162025.000	0.000	-0.140	0.469	150.000	0.000	0.000
1162025.000	0.000	-0.140	0.469	150.000	0.000	0.000
1162055.000	0.000	-0.120	0.422	150.000	0.000	0.000
1162055.000	0.000	-0.120	0.422	150.000	0.000	0.000
1162055.000	0.000	-0.120	0.422	150.000	0.000	0.000
1162085.000	0.000	-0.110	0.359	150.000	0.000	0.000
1162085.000	0.000	-0.110	0.359	150.000	0.000	0.000
1162085.000	0.000	-0.110	0.359	150.000	0.000	0.000
1162115.000	0.000	-0.090	0.297	150.000	0.000	0.000
1162115.000	0.000	-0.090	0.297	150.000	0.000	0.000
1162115.000	0.000	-0.090	0.297	150.000	0.000	0.000
1162145.000	0.000	-0.070	0.234	150.000	0.000	0.000
1162145.000	0.000	-0.070	0.234	150.000	0.000	0.000
1162145.000	0.000	-0.070	0.234	150.000	0.000	0.000
1162175.000	0.000	-0.050	0.156	150.000	0.000	0.000
1162175.000	0.000	-0.050	0.156	150.000	0.000	0.000
1162175.000	0.000	-0.050	0.156	150.000	0.000	0.000
1162205.000	0.000	-0.030	0.094	150.000	0.000	0.000
1162205.000	0.000	-0.030	0.094	150.000	0.000	0.000
1162205.000	0.000	-0.030	0.094	150.000	0.000	0.000
1162235.000	0.000	-0.010	0.016	150.000	0.000	0.000
1162235.000	0.000	-0.010	0.016	150.000	0.000	0.000
1162235.000	0.000	-0.010	0.016	150.000	0.000	0.000
1162265.000	0.000	0.010	-0.047	150.000	0.000	0.000
1162265.000	0.000	0.010	-0.047	150.000	0.000	0.000
1162265.000	0.000	0.010	-0.047	150.000	0.000	0.000
1162295.000	0.000	0.030	-0.125	150.000	0.000	0.000
1162295.000	0.000	0.030	-0.125	150.000	0.000	0.000
1162295.000	0.000	0.030	-0.125	150.000	0.000	0.000
1162325.000	0.000	0.050	-0.187	150.000	0.000	0.000
1162325.000	0.000	0.050	-0.187	150.000	0.000	0.000
1162325.000	0.000	0.050	-0.187	150.000	0.000	0.000
1162355.000	0.000	0.060	-0.250	150.000	0.000	0.000
1162355.000	0.000	0.060	-0.250	150.000	0.000	0.000
1162355.000	0.000	0.060	-0.250	150.000	0.000	0.000
1162385.000	0.000	0.080	-0.297	150.000	0.000	0.000
1162385.000	0.000	0.080	-0.297	150.000	0.000	0.000
1162385.000	0.000	0.080	-0.297	150.000	0.000	0.000
1162415.000	0.000	0.090	-0.344	150.000	0.000	0.000
1162415.000	0.000	0.090	-0.344	150.000	0.000	0.000
1162415.000	0.000	0.090	-0.344	150.000	0.000	0.000
1162445.000	0.000	0.100	-0.375	150.000	0.000	0.000
1162445.000	0.000	0.100	-0.375	150.000	0.000	0.000
1162445.000	0.000	0.100	-0.375	150.000	0.000	0.000
1162475.000	0.000	0.100	-0.391	150.000	0.000	0.000
1162475.000	0.000	0.100	-0.391	150.000	0.000	0.000
1162475.000	0.000	0.100	-0.391	150.000	0.000	0.000
1162505.000	0.000	0.100	-0.406	150.000	0.000	0.000
1162505.000	0.000	0.100	-0.406	150.000	0.000	0.000
1162505.000	0.000	0.100	-0.406	150.000	0.000	0.000
1162535.000	0.000	0.100	-0.406	150.000	0.000	0.000
1162535.000	0.000	0.100	-0.406	150.000	0.000	0.000
1162535.000	0.000	0.100	-0.406	150.000	0.000	0.000
1162565.000	0.000	0.100	-0.391	150.000	0.000	0.000
1162565.000	0.000	0.100	-0.391	150.000	0.000	0.000
1162565.000	0.000	0.100	-0.391	150.000	0.000	0.000
1162595.000	0.000	0.090	-0.359	150.000	0.000	0.000
1162595.000	0.000	0.090	-0.359	150.000	0.000	0.000
1162595.000	0.000	0.090	-0.359	150.000	0.000	0.000
1162625.000	0.000	0.090	-0.328	150.000	0.000	0.000
1162625.000	0.000	0.090	-0.328	150.000	0.000	0.000
1162625.000	0.000	0.090	-0.328	150.000	0.000	0.000
1162655.000	0.000	0.070	-0.297	150.000	0.000	0.000
1162655.000	0.000	0.070	-0.297	150.000	0.000	0.000
1162655.000	0.000	0.070	-0.297	150.000	0.000	0.000
1162685.000	0.000	0.060	-0.250	150.000	0.000	0.000
1162685.000	0.000	0.060	-0.250	150.000	0.000	0.000
1162685.000	0.000	0.060	-0.250	150.000	0.000	0.000
1162715.000	0.000	0.050	-0.187	150.000	0.000	0.000
1162715.000	0.000	0.050	-0.187	150.000	0.000	0.000
1162715.000	0.000	0.050	-0.187	150.000	0.000	0.000
1162745.000	0.000	0.030	-0.125	150.000	0.000	0.000
1162745.000	0.000	0.030	-0.125	150.000	0.000	0.000
1162745.000	0.000	0.030	-0.125	150.000	0.000	0.000
1162775.000	0.000	0.010	-0.062	150.000	0.000	0.000
1162775.000	0.000	0.010	-0.062	150.000	0.000	0.000
1162775.000	0.000	0.010	-0.062	150.000	0.000	0.000
1162805.000	0.000	-0.010	0.000	150.000	0.000	0.000
1162805.000	0.000	-0.010	0.000	150.000	0.000	0.000
1162805.000	0.000	-0.010	0.000	150.000	0.000	0.000
1162835.000	0.000	-0.020	0.062	150.000	0.000	0.000
1162835.000	0.000	-0.020	0.062	150.000	0.000	0.000
1162835.000	0.000	-0.020	0.062	150.000	0.000	0.000
1162865.000	0.000	-0.040	0.125	150.000	0.000	0.000
1162865.000	0.000	-0.040	0.125	150.000	0.000	0.000
1162865.000	0.000	-0.040	0.125	150.000	0.000	0.000
1162895.000	0.000	-0.060	0.172	150.000	0.000	0.000
1162895.000	0.000	-0.060	0.172	150.000	0.000	0.000
1162895.000	0.000	-0.060	0.172	150.000	0.000	0.000
1162925.000	0.000	-0.070	0.234	150.000	0.000	0.000
1162925.000	0.000	-0.070	0.234	150.000	0.000	0.000
1162925.000	0.000	-0.070	0.234	150.000	0.000	0.000
1162955.000	0.000	-0.090	0.281	150.000	0.000	0.000
1162955.000	0.000	-0.090	0.281	150.000	0.000	0.000
1162955.000	0.000	-0.090	0.281	150.000	0.000	0.000
1162985.000	0.000	-0.100	0.312	150.000	0.000	0.000
1162985.000	0.000	-0.100	0.312	150.000	0.000	0.000
1162985.000	0.000	-0.100	0.312	150.000	0.000	0.000
1163015.000	0.000	-0.110	0.359	150.000	0.000	0.000
1163015.000	0.000	-0.110	0.359	150.000	0.000	0.000
1163015.000	0.000	-0.110	0.359	150.000	0.000	0.000
1163045.000	0.000	-0.110	0.391	150.000	0.000	0.000
1163045.000	0.000	-0.110	0.391	150.000	0.000	0.000
1163045.000	0.000	-0.110	0.391	150.000	0.000	0.000
1163075.000	0.000	-0.120	0.406	150.000	0.000	0.000
1163075.000	0.000	-0.120	0.406	150.000	0.000	0.000
1163075.000	0.000	-0.120	0.406	150.000	0.000	0.000
1163105.000	0.000	-0.120	0.422	150.000	0.000	0.000
1163105.000	0.000	-0.120	0.422	150.000	0.000	0.000
1163105.000	0.000	-0.120	0.422	150.000	0.000	0.000
1163135.000	0.000	-0.120	0.422	150.000	0.000	0.000
1163135.000	0.000	-0.120	0.422	150.000	0.000	0.000
1163135.000	0.000	-0.120	0.422	150.000	0.000	0.000
1163165.000	0.000	-0.120	0.406	150.000	0.000	0.000
1163165.000	0.000	-0.120	0.406	150.000	0.000	0.000
1163165.000	0.000	-0.120	0.406	150.000	0.000	0.000
1163195.000	0.000	-0.120	0.391	150.000	0.000	0.000
1163195.000	0.000	-0.120	0.391	150.000	0.000	0.000
1163195.000	0.000	-0.120	0.391	150.000	0.000	0.000
1163225.000	0.000	-0.110	0.375	150.000	0.000	0.000
1163225.000	0.000	-0.110	0.375	150.000	0.000	0.000
1163225.000	0.000	-0.110	0.375	150.000	0.000	0.000
1163255.000	0.000	-0.100	0.344	150.000	0.000	0.000
1163255.000	0.000	-0.100	0.344	150.000	0.000	0.000
1163255.000	0.000	-0.100	0.344	150.000	0.000	0.000
1163285.000	0.000	-0.090	0.297	150.000	0.000	0.000
1163285.000	0.000	-0.090	0.297	150.000	0.000	0.000
1163285.000	0.000	-0.090	0.297	150.000	0.000	0.000
1163315.000	0.000	-0.080	0.250	150.000	0.000	0.000
1163315.000	0.000	-0.080	0.250	150.000	0.000	0.000
1163315.000	0.000	-0.080	0.250	150.000	0.000	0.000
1163345.000	0.000	-0.070	0.203	150.000	0.000	0.000
1163345.000	0.000	-0.070	0.203	150.000	0.000	0.000
1163345.000	0.000	-0.070	0.203	150.000	0.000	0.000
1163375.000	0.000	-0.050	0.156	150.000	0.000	0.000
1163375.000	0.000	-0.050	0.156	150.000	0.000	0.000
1163375.000	0.000	-0.050	0.156	150.000	0.000	0.000
1163405.000	0.000	-0.040	0.109	150.000	0.000	0.000
1163405.000	0.000	-0.040	0.109	150.000	0.000	0.000
1163405.000	0.000	-0.040	0.109	150.000	0.000	0.000
1163435.000	0.000	-0.020	0.062	150.000	0.000	0.000
1163435.000	0.000	-0.020	0.062	150.000	0.000	0.000
1163435.000	0.000	-0.020	0.062	150.000	0.000	0.000
1163465.000	0.000	-0.010	0.000	150.000	0.000	0.000
1163465.000	0.000	-0.010	0.000	150.000	0.000	0.000
1163465.000	0.000	-0.010	0.000	150.000	0.000	0.000
1163495.000	0.000	0.010	-0.047	150.000	0.000	0.000
1163495.000	0.000	0.010	-0.047	150.000	0.000	0.000
1163495.000	0.000	0.010	-0.047	150.000	0.000	0.000
1163525.000	0.000	0.020	-0.094	150.000	0.000	0.000
1163525.000	0.000	0.020	-0.094	150.000	0.000	0.000
1163525.000	0.000	0.020	-0.094	150.000	0.000	0.000
1163555.000	0.000	0.030	-0.141	150.000	0.000	0.000
1163555.000	0.000	0.030	-0.141	150.000	0.000	0.000
1163555.000	0.000	0.030	-0.141	150.000	0.000	0.000
1163585.000	0.000	0.040	-0.172	150.000	0.000	0.000
1163585.000	0.000	0.040	-0.172	150.000	0.000	0.000
1163585.000	0.000	0.040	-0.172	150.000	0.000	0.000
1163615.000	0.000	0.050	-0.219	150.000	0.000	0.000
1163615.000	0.000	0.050	-0.219	150.000	0.000	0.000
1163615.000	0.000	0.050	-0.219	150.000	0.000	0.000
1163645.000	0.000	0.060	-0.234	150.000	0.000	0.000
1163645.000	0.000	0.060	-0.234	150.000	0.000	0.000
1163645.000	0.000	0.060	-0.234	150.000	0.000	0.000
1163675.000	0.000	0.060	-0.250	150.000	0.000	0.000
1163675.000	0.000	0.060	-0.250	150.000	0.000	0.000
1163675.000	0.000	0.060	-0.250	150.000	0.000	0.000
1163705.000	0.000	0.070	-0.266	150.000	0.000	0.000
1163705.000	0.000	0.070	-0.266	150.000	0.000	0.000
1163705.000	0.000	0.070	-0.266	150.000	0.000	0.000
1163735.000	0.000	0.070	-0.266	150.000	0.000	0.000
1163735.000	0.000	0.070	-0.266	150.000	0.000	0.000
1163735.000	0.000	0.070	-0.266	150.000	0.000	0.000
1163765.000	0.000	0.070	-0.266	150.000	0.000	0.000
1163765.000	0.000	0.070	-0.266	150.000	0.000	0.000
1163765.000	0.000	0.070	-0.266	150.000	0.000	0.000
1163795.000	0.000	0.060	-0.250	150.000	0.000	0.000
1163795.000	0.000	0.060	-0.250	150.000	0.000	0.000
1163795.000	0.000	0.060	-0.250	150.000	0.000	0.000
1163825.000	0.000	0.060	-0.219	150.000	0.000	0.000
1163825.000	0.000	0.060	-0.219	150.000	0.000	0.000
1163825.000	0.000	0.060	-0.219	150.000	0.000	0.000
1163855.000	0.000	0.050	-0.203	150.000	0.000	0.000
1163855.000	0.000	0.050	-0.203	150.000	0.000	0.000
1163855.000	0.000	0.050	-0.203	150.000	0.000	0.000
1163885.000	0.000	0.040	-0.172	150.000	0.000	0.000
1163885.000	0.000	0.040	-0.172	150.000	0.000	0.000
1163885.000	0.000	0.040	-0.172	150.000	0.000	0.000
1163915.000	0.000	0.030	-0.125	150.000	0.000	0.000
1163915.000	0.000	0.030	-0.125	150.000	0.000	0.000
1163915.000	0.000	0.030	-0.125	150.000	0.000	0.000
1163945.000	0.000	0.020	-0.094	150.000	0.000	0.000
1163945.000	0.000	0.020	-0.094	150.000	0.000	0.000
1163945.000	0.000	0.020	-0.094	150.000	0.000	0.000
1163975.000	0.000	0.000	-0.047	150.000	0.000	0.000
1163975.000	0.000	0.000	-0.047	150.000	0.000	0.000
1163975.000	0.000	0.000	-0.047	150.000	0.000	0.000
1164005.000	0.000	-0.010	0.000	150.000	0.000	0.000
1164005.000	0.000	-0.010	0.000	150.000	0.000	0.000
1164005.000	0.000	-0.010	0.000	150.000	0.000	0.000
1164035.000	0.000	-0.020	0.047	150.000	0.000	0.000
1164035.000	0.000	-0.020	0.047	150.000	0.000	0.000
1164035.000	0.000	-0.020	0.047	150.000	0.000	0.000
1164065.000	0.000	-0.030	0.094	150.000	0.000	0.000
1164065.000	0.000	-0.030	0.094	150.000	0.000	0.000
1164065.000	0.000	-0.030	0.094	150.000	0.000	0.000
1164095.000	0.000	-0.050	0.141	150.000	0.000	0.000
1164095.000	0.000	-0.050	0.141	150.000	0.000	0.000
1164095.000	0.000	-0.050	0.141	150.000	0.000	0.000
1164125.000	0.000	-0.060	0.172	150.000	0.000	0.000
1164125.000	0.000	-0.060	0.172	150.000	0.000	0.000
1164125.000	0.000	-0.060	0.172	150.000	0.000	0.000
1164155.000	0.000	-0.070	0.203	150.000	0.000	0.000
1164155.000	0.000	-0.070	0.203	150.000	0.000	0.000
1164155.000	0.000	-0.070	0.203	150.000	0.000	0.000
1164185.000	0.000	-0.070	0.234	150.000	0.000	0.000
1164185.000	0.000	-0.070	0.234	150.000	0.000	0.000
1164185.000	0.000	-0.070	0.234	150.000	0.000	0.000
1164215.000	0.000	-0.080	0.266	150.000	0.000	0.000
1164215.000	0.000	-0.080	0.266	150.000	0.000	0.000
1164215.000	0.000	-0.080	0.266	150.000	0.000	0.000
1164245.000	0.000	-0.090	0.281	150.000	0.000	0.000
1164245.000	0.000	-0.090	0.281	150.000	0.000	0.000
1164245.000	0.000	-0.090	0.281	150.000	0.000	0.000
1164275.000	0.000	-0.090	0.297	150.000	0.000	0.000
1164275.000	0.000	-0.090	0.297	150.000	0.000	0.000
1164275.000	0.000	-0.090	0.297	150.000	0.000	0.000
1164305.000	0.000	-0.090	0.312	150.000	0.000	0.000
1164305.000	0.000	-0.090	0.312	150.000	0.000	0.000
1164305.000	0.000	-0.090	0.312	150.000	0.000	0.000
1164335.000	0.000	-0.090	0.312	150.000	0.000	0.000
1164335.000	0.000	-0.090	0.312	150.000	0.000	0.000
1164335.000	0.000	-0.090	0.312	150.000	0.000	0.000
1164365.000	0.000	-0.090	0.297	150.000	0.000	0.000
1164365.000	0.000	-0.090	0.297	150.000	0.000	0.000
1164365.000	0.000	-0.090	0.297	150.000	0.000	0.000
1164395.000	0.000	-0.090	0.297	150.000	0.000	0.000
1164395.000	0.000	-0.090	0.297	150.000	0.000	0.000
1164395.000	0.000	-0.090	0.297	150.000	0.000	0.000
1164425.000	0.000	-0.080	0.281	150.000	0.000	0.000
1164425.000	0.000	-0.080	0.281	150.000	0.000	0.000
1164425.000	0.000	-0.080	0.281	150.000	0.000	0.000
1164455.000	0.000	-0.080	0.250	150.000	0.000	0.000
1164455.000	0.000	-0.080	0.250	150.000	0.000	0.000
1164455.000	0.000	-0.080	0.250	150.000	0.000	0.000
1164485.000	0.000	-0.070	0.234	150.000	0.000	0.000
1164485.000	0.000	-0.070	0.234	150.000	0.000	0.000
1164485.000	0.000	-0.070	0.234	150.000	0.000	0.000
1164515.000	0.000	-0.060	0.203	150.000	0.000	0.000
1164515.000	0.000	-0.060	0.203	150.000	0.000	0.000
1164515.000	0.000	-0.060	0.203	150.000	0.000	0.000
1164545.000	0.000	-0.060	0.172	150.000	0.000	0.000
1164545.000	0.000	-0.060	0.172	150.000	0.000	0.000
1164545.000	0.000	-0.060	0.172	150.000	0.000	0.000
1164575.000	0.000	-0.050	0.141	150.000	0.000	0.000
1164575.000	0.000	-0.050	0.141	150.000	0.000	0.000
1164575.000	0.000	-0.050	0.141	150.000	0.000	0.000
1164605.000	0.000	-0.040	0.109	150.000	0.000	0.000
1164605.000	0.000	-0.040	0.109	150.000	0.000	0.000
1164605.000	0.000	-0.040	0.109	150.000	0.000	0.000
1164635.000	0.000	-0.030	0.062	150.000	0.000	0.000
1164635.000	0.000	-0.030	0.062	150.000	0.000	0.000
1164635.000	0.000	-0.030	0.062	150.000	0.000	0.000
1164665.000	0.000	-0.020	0.031	150.000	0.000	0.000
1164665.000	0.000	-0.020	0.031	150.000	0.000	0.000
1164665.000	0.000	-0.020	0.031	150.000	0.000	0.000
1164695.000	0.000	-0.010	0.000	150.000	0.000	0.000
1164695.000	0.000	-0.010	0.000	150.000	0.000	0.000
1164695.000	0.000	-0.010	0.000	150.000	0.000	0.000
1164725.000	0.000	0.000	-0.047	150.000	0.000	0.000
1164725.000	0.000	0.000	-0.047	150.000	0.000	0.000
1164725.000	0.000	0.000	-0.047	150.000	0.000	0.000
1164755.000	0.000	0.010	-0.078	150.000	0.000	0.000
1164755.000	0.000	0.010	-0.078	150.000	0.000	0.000
1164755.000	0.000	0.010	-0.078	150.000	0.000	0.000
1164785.000	0.000	0.020	-0.109	150.000	0.000	0.000
1164785.000	0.000	0.020	-0.109	150.000	0.000	0.000
1164785.000	0.000	0.020	-0.109	150.000	0.000	0.000
1164815.000	0.000	0.030	-0.125	150.000	0.000	0.000
1164815.000	0.000	0.030	-0.125	150.000	0.000	0.000
1164815.000	0.000	0.030	-0.125	150.000	0.000	0.000
1164845.000	0.000	0.030	-0.141	150.000	0.000	0.000
1164845.000	0.000	0.030	-0.141	150.000	0.000	0.000
1164845.000	0.000	0.030	-0.141	150.000	0.000	0.000
1164875.000	0.000	0.040	-0.156	150.000	0.000	0.000
1164875.000	0.000	0.040	-0.156	150.000	0.000	0.000
1164875.000	0.000	0.040	-0.156	150.000	0.000	0.000
1164905.000	0.000	0.040	-0.172	150.000	0.000	0.000
1164905.000	0.000	0.040	-0.172	150.000	0.000	0.000
1164905.000	0.000	0.040	-0.172	150.000	0.000	0.000
1164935.000	0.000	0.040	-0.172	150.000	0.000	0.000
1164935.000	0.000	0.040	-0.172	150.000	0.000	0.000
1164935.000	0.000	0.040	-0.172	150.000	0.000	0.000
1164965.000	0.000	0.040	-0.172	150.000	0.000	0.000
1164965.000	0.000	0.040	-0.172	150.000	0.000	0.000
1164965.000	0.000	0.040	-0.172	150.000	0.000	0.000
1164995.000	0.000	0.040	-0.156	150.000	0.000	0.000
1164995.000	0.000	0.040	-0.156	150.000	0.000	0.000
1164995.000	0.000	0.040	-0.156	150.000	0.000	0.000
1165025.000	0.000	0.030	-0.141	150.000	0.000	0.000
1165025.000	0.000	0.030	-0.141	150.000	0.000	0.000
1165025.000	0.000	0.030	-0.141	150.000	0.000	0.000
1165055.000	0.000	0.030	-0.125	150.000	0.000	0.000
1165055.000	0.000	0.030	-0.125	150.000	0.000	0.000
1165055.000	0.000	0.030	-0.125	150.000	0.000	0.000
1165085.000	0.000	0.020	-0.094	150.000	0.000	0.000
1165085.000	0.000	0.020	-0.094	150.000	0.000	0.000
1165085.000	0.000	0.020	-0.094	150.000	0.000	0.000
1165115.000	0.000	0.010	-0.078	150.000	0.000	0.000
1165115.000	0.000	0.010	-0.078	150.000	0.000	0.000
1165115.000	0.000	0.010	-0.078	150.000	0.000	0.000
1165145.000	0.000	0.000	-0.047	150.000	0.000	0.000
1165145.000	0.000	0.000	-0.047	150.000	0.000	0.000
1165145.000	0.000	0.000	-0.047	150.000	0.000	0.000
1165175.000	0.000	0.000	-0.016	150.000	0.000	0.000
1165175.000	0.000	0.000	-0.016	150.000	0.000	0.000
1165175.000	0.000	0.000	-0.016	150.000	0.000	0.000
1165205.000	0.000	-0.010	0.016	150.000	0.000	0.000
1165205.000	0.000	-0.010	0.016	150.000	0.000	0.000
1165205.000	0.000	-0.010	0.016	150.000	0.000	0.000
1165235.000	0.000	-0.020	0.047	150.000	0.000	0.000
1165235.000	0.000	-0.020	0.047	150.000	0.000	0.000
1165235.000	0.000	-0.020	0.047	150.000	0.000	0.000
1165265.000	0.000	-0.030	0.078	150.000	0.000	0.000
1165265.000	0.000	-0.030	0.078	150.000	0.000	0.000
1165265.000	0.000	-0.030	0.078	150.000	0.000	0.000
1165295.000	0.000	-0.040	0.109	150.000	0.000	0.000
1165295.000	0.000	-0.040	0.109	150.000	0.000	0.000
1165295.000	0.000	-0.040	0.109	150.000	0.000	0.000
1165325.000	0.000	-0.040	0.125	150.000	0.000	0.000
1165325.000	0.000	-0.040	0.125	150.000	0.000	0.000
1165325.000	0.000	-0.040	0.125	150.000	0.000	0.000
1165355.000	0.000	-0.050	0.141	150.000	0.000	0.000
1165355.000	0.000	-0.050	0.141	150.000	0.000	0.000
1165355.000	0.000	-0.050	0.141	150.000	0.000	0.000
1165385.000	0.000	-0.050	0.172	150.000	0.000	0.000
1165385.000	0.000	-0.050	0.172	150.000	0.000	0.000
1165385.000	0.000	-0.050	0.172	150.000	0.000	0.000
1165415.000	0.000	-0.060	0.187	150.000	0.000	0.000
1165415.000	0.000	-0.060	0.187	150.000	0.000	0.000
1165415.000	0.000	-0.060	0.187	150.000	0.000	0.000
1165445.000	0.000	-0.060	0.187	150.000	0.000	0.000
1165445.000	0.000	-0.060	0.187	150.000	0.000	0.000
1165445.000	0.000	-0.060	0.187	150.000	0.000	0.000
1165475.000	0.000	-0.060	0.203	150.000	0.000	0.000
1165475.000	0.000	-0.060	0.203	150.000	0.000	0.000
1165475.000	0.000	-0.060	0.203	150.000	0.000	0.000
1165505.000	0.000	-0.060	0.203	150.000	0.000	0.000
1165505.000	0.000	-0.060	0.203	150.000	0.000	0.000
1165505.000	0.000	-0.060	0.203	150.000	0.000	0.000
1165535.000	0.000	-0.060	0.203	150.000	0.000	0.000
1165535.000	0.000	-0.060	0.203	150.000	0.000	0.000
1165535.000	0.000	-0.060	0.203	150.000	0.000	0.000
1165565.000	0.000	-0.060	0.187	150.000	0.000	0.000
1165565.000	0.000	-0.060	0.187	150.000	0.000	0.000
1165565.000	0.000	-0.060	0.187	150.000	0.000	0.000
1165595.000	0.000	-0.060	0.187	150.000	0.000	0.000
1165595.000	0.000	-0.060	0.187	150.000	0.000	0.000
1165595.000	0.000	-0.060	0.187	150.000	0.000	0.000
1165625.000	0.000	-0.050	0.172	150.000	0.000	0.000
1165625.000	0.000	-0.050	0.172	150.000	0.000	0.000
1165625.000	0.000	-0.050	0.172	150.000	0.000	0.000
1165655.000	0.000	-0.050	0.156	150.000	0.000	0.000
1165655.000	0.000	-0.050	0.156	150.000	0.000	0.000
1165655.000	0.000	-0.050	0.156	150.000	0.000	0.000
1165685.000	0.000	-0.050	0.141	150.000	0.000	0.000
1165685.000	0.000	-0.050	0.141	150.000	0.000	0.000
1165685.000	0.000	-0.050	0.141	150.000	0.000	0.000
1165715.000	0.000	-0.040	0.125	150.000	0.000	0.000
1165715.000	0.000	-0.040	0.125	150.000	0.000	0.000
1165715.000	0.000	-0.040	0.125	150.000	0.000	0.000
1165745.000	0.000	-0.030	0.094	150.000	0.000	0.000
1165745.000	0.000	-0.030	0.094	150.000	0.000	0.000
1165745.000	0.000	-0.030	0.094	150.000	0.000	0.000
1165775.000	0.000	-0.030	0.078	150.000	0.000	0.000
1165775.000	0.000	-0.030	0.078	150.000	0.000	0.000
1165775.000	0.000	-0.030	0.078	150.000	0.000	0.000
1165805.000	0.000	-0.020	0.047	150.000	0.000	0.000
1165805.000	0.000	-0.020	0.047	150.000	0.000	0.000
1165805.000	0.000	-0.020	0.047	150.000	0.000	0.000
1165835.000	0.000	-0.010	0.031	150.000	0.000	0.000
1165835.000	0.000	-0.010	0.031	150.000	0.000	0.000
1165835.000	0.000	-0.010	0.031	150.000	0.000	0.000
1165865.000	0.000	-0.010	0.000	150.000	0.000	0.000
1165865.000	0.000	-0.010	0.000	150.000	0.000	0.000
1165865.000	0.000	-0.010	0.000	150.000	0.000	0.000
1165895.000	0.000	0.000	-0.016	150.000	0.000	0.000
1165895.000	0.000	0.000	-0.016	150.000	0.000	0.000
1165895.000	0.000	0.000	-0.016	150.000	0.000	0.000
1165925.000	0.000	0.000	-0.031	150.000	0.000	0.000
1165925.000	0.000	0.000	-0.031	150.000	0.000	0.000
1165925.000	0.000	0.000	-0.031	150.000	0.000	0.000
1165955.000	0.000	0.010	-0.062	150.000	0.000	0.000
1165955.000	0.000	0.010	-0.062	150.000	0.000	0.000
1165955.000	0.000	0.010	-0.062	150.000	0.000	0.000
1165985.000	0.000	0.010	-0.078	150.000	0.000	0.000
1165985.000	0.000	0.010	-0.078	150.000	0.000	0.000
1165985.000	0.000	0.010	-0.078	150.000	0.000	0.000
1166015.000	0.000	0.020	-0.078	150.000	0.000	0.000
1166015.000	0.000	0.020	-0.078	150.000	0.000	0.000
1166015.000	0.000	0.020	-0.078	150.000	0.000	0.000
1166045.000	0.000	0.020	-0.094	150.000	0.000	0.000
1166045.000	0.000	0.020	-0.094	150.000	0.000	0.000
1166045.000	0.000	0.020	-0.094	150.000	0.000	0.000
1166075.000	0.000	0.020	-0.094	150.000	0.000	0.000
1166075.000	0.000	0.020	-0.094	150.000	0.000	0.000
1166075.000	0.000	0.020	-0.094	150.000	0.000	0.000
1166105.000	0.000	0.020	-0.094	150.000	0.000	0.000
1166105.000	0.000	0.020	-0.094	150.000	0.000	0.000
1166105.000	0.000	0.020	-0.094	150.000	0.000	0.000
1166135.000	0.000	0.020	-0.094	150.000	0.000	0.000
1166135.000	0.000	0.020	-0.094	150.000	0.000	0.000
1166135.000	0.000	0.020	-0.094	150.000	0.000	0.000
1166165.000	0.000	0.020	-0.078	150.000	0.000	0.000
1166165.000	0.000	0.020	-0.078	150.000	0.000	0.000
1166165.000	0.000	0.020	-0.078	150.000	0.000	0.000
1166195.000	0.000	0.010	-0.078	150.000	0.000	0.000
1166195.000	0.000	0.010	-0.078	150.000	0.000	0.000
1166195.000	0.000	0.010	-0.078	150.000	0.000	0.000
1166225.000	0.000	0.010	-0.062	150.000	0.000	0.000
1166225.000	0.000	0.010	-0.062	150.000	0.000	0.000
1166225.000	0.000	0.010	-0.062	150.000	0.000	0.000
1166255.000	0.000	0.010	-0.047	150.000	0.000	0.000
1166255.000	0.000	0.010	-0.047	150.000	0.000	0.000
1166255.000	0.000	0.010	-0.047	150.000	0.000	0.000
1166285.000	0.000	0.000	-0.031	150.000	0.000	0.000
1166285.000	0.000	0.000	-0.031	150.000	0.000	0.000
1166285.000	0.000	0.000	-0.031	150.000	0.000	0.000
1166315.000	0.000	0.000	-0.016	150.000	0.000	0.000
1166315.000	0.000	0.000	-0.016	150.000	0.000	0.000
1166315.000	0.000	0.000	-0.016	150.000	0.000	0.000
1166345.000	0.000	-0.010	0.000	150.000	0.000	0.000
1166345.000	0.000	-0.010	0.000	150.000	0.000	0.000
1166345.000	0.000	-0.010	0.000	150.000	0.000	0.000
1166375.000	0.000	-0.010	0.000	150.000	0.000	0.000
1166375.000	0.000	-0.010	0.000	150.000	0.000	0.000
1166375.000	0.000	-0.010	0.000	150.000	0.000	0.000
1166405.000	0.000	-0.010	0.016	150.000	0.000	0.000
1166405.000	0.000	-0.010	0.016	150.000	0.000	0.000
1166405.000	0.000	-0.010	0.016	150.000	0.000	0.000
1166435.000	0.000	-0.010	0.016	150.000	0.000	0.000
1166435.000	0.000	-0.010	0.016	150.000	0.000	0.000
1166435.000	0.000	-0.010	0.016	150.000	0.000	0.000
1166465.000	0.000	-0.010	0.031	150.000	0.000	0.000
1166465.000	0.000	-0.010	0.031	150.000	0.000	0.000
1166465.000	0.000	-0.010	0.031	150.000	0.000	0.000
1166495.000	0.000	-0.010	0.031	150.000	0.000	0.000
1166495.000	0.000	-0.010	0.031	150.000	0.000	0.000
1166495.000	0.000	-0.010	0.031	150.000	0.000	0.000
1166525.000	0.000	-0.010	0.031	150.000	0.000	0.000
1166525.000	0.000	-0.010	0.031	150.000	0.000	0.000
1166525.000	0.000	-0.010	0.031	150.000	0.000	0.000
1166555.000	0.000	-0.010	0.031	150.000	0.000	0.000
1166555.000	0.000	-0.010	0.031	150.000	0.000	0.000
1166555.000	0.000	-0.010	0.031	150.000	0.000	0.000
1166585.000	0.000	-0.010	0.016	150.000	0.000	0.000
1166585.000	0.000	-0.010	0.016	150.000	0.000	0.000
1166585.000	0.000	-0.010	0.016	150.000	0.000	0.000
1166615.000	0.000	-0.010	0.016	150.000	0.000	0.000
1166615.000	0.000	-0.010	0.016	150.000	0.000	0.000
1166615.000	0.000	-0.010	0.016	150.000	0.000	0.000
1166645.000	0.000	-0.010	0.016	150.000	0.000	0.000
1166645.000	0.000	-0.010	0.016	150.000	0.000	0.000
1166645.000	0.000	-0.010	0.016	150.000	0.000	0.000
1166675.000	0.000	-0.010	0.000	150.000	0.000	0.000
1166675.000	0.000	-0.010	0.000	150.000	0.000	0.000
1166675.000	0.000	-0.010	0.000	150.000	0.000	0.000
1166705.000	0.000	-0.010	0.000	150.000	0.000	0.000
1166705.000	0.000	-0.010	0.000	150.000	0.000	0.000
1166705.000	0.000	-0.010	0.000	150.000	0.000	0.000
1166735.000	0.000	0.000	-0.016	150.000	0.000	0.000
1166735.000	0.000	0.000	-0.016	150.000	0.000	0.000
1166735.000	0.000	0.000	-0.016	150.000	0.000	0.000
1166765.000	0.000	0.000	-0.016	150.000	0.000	0.000
1166765.000	0.000	0.000	-0.016	150.000	0.000	0.000
1166765.000	0.000	0.000	-0.016	150.000	0.000	0.000
1166795.000	0.000	0.000	-0.031	150.000	0.000	0.000
1166795.000	0.000	0.000	-0.031	150.000	0.000	0.000
1166795.000	0.000	0.000	-0.031	150.000	0.000	0.000
1166825.000	0.000	0.000	-0.047	150.000	0.000	0.000
1166825.000	0.000	0.000	-0.047	150.000	0.000	0.000
1166825.000	0.000	0.000	-0.047	150.000	0.000	0.000
1166855.000	0.000	0.010	-0.047	150.000	0.000	0.000
1166855.000	0.000	0.010	-0.047	150.000	0.000	0.000
1166855.000	0.000	0.010	-0.047	150.000	0.000	0.000
1166885.000	0.000	0.010	-0.062	150.000	0.000	0.000
1166885.000	0.000	0.010	-0.062	150.000	0.000	0.000
1166885.000	0.000	0.010	-0.062	150.000	0.000	0.000
1166915.000	0.000	0.010	-0.078	150.000	0.000	0.000
1166915.000	0.000	0.010	-0.078	150.000	0.000	0.000
1166915.000	0.000	0.010	-0.078	150.000	0.000	0.000
1166945.000	0.000	0.020	-0.078	150.000	0.000	0.000
1166945.000	0.000	0.020	-0.078	150.000	0.000	0.000
1166945.000	0.000	0.020	-0.078	150.000	0.000	0.000
1166975.000	0.000	0.020	-0.094	150.000	0.000	0.000
1166975.000	0.000	0.020	-0.094	150.000	0.000	0.000
1166975.000	0.000	0.020	-0.094	150.000	0.000	0.000
1167005.000	0.000	0.020	-0.094	150.000	0.000	0.000
1167005.000	0.000	0.020	-0.094	150.000	0.000	0.000
1167005.000	0.000	0.020	-0.094	150.000	0.000	0.000
1167035.000	0.000	0.020	-0.094	150.000	0.000	0.000
1167035.000	0.000	0.020	-0.094	150.000	0.000	0.000
1167035.000	0.000	0.020	-0.094	150.000	0.000	0.000
1167065.000	0.000	0.020	-0.109	150.000	0.000	0.000
1167065.000	0.000	0.020	-0.109	150.000	0.000	0.000
1167065.000	0.000	0.020	-0.109	150.000	0.000	0.000
1167095.000	0.000	0.020	-0.109	150.000	0.000	0.000
1167095.000	0.000	0.020	-0.109	150.000	0.000	0.000
1167095.000	0.000	0.020	-0.109	150.000	0.000	0.000
1167125.000	0.000	0.020	-0.109	150.000	0.000	0.000
1167125.000	0.000	0.020	-0.109	150.000	0.000	0.000
1167125.000	0.000	0.020	-0.109	150.000	0.000	0.000
1167155.000	0.000	0.020	-0.094	150.000	0.000	0.000
1167155.000	0.000	0.020	-0.094	150.000	0.000	0.000
1167155.000	0.000	0.020	-0.094	150.000	0.000	0.000
1167185.000	0.000	0.020	-0.094	150.000	0.000	0.000
1167185.000	0.000	0.020	-0.094	150.000	0.000	0.000
1167185.000	0.000	0.020	-0.094	150.000	0.000	0.000
1167215.000	0.000	0.020	-0.094	150.000	0.000	0.000
1167215.000	0.000	0.020	-0.094	150.000	0.000	0.000
1167215.000	0.000	0.020	-0.094	150.000	0.000	0.000
1167245.000	0.000	0.020	-0.078	150.000	0.000	0.000
1167245.000	0.000	0.020	-0.078	150.000	0.000	0.000
1167245.000	0.000	0.020	-0.078	150.000	0.000	0.000
1167275.000	0.000	0.010	-0.078	150.000	0.000	0.000
1167275.000	0.000	0.010	-0.078	150.000	0.000	0.000
1167275.000	0.000	0.010	-0.078	150.000	0.000	0.000
1167305.000	0.000	0.010	-0.078	150.000	0.000	0.000
1167305.000	0.000	0.010	-0.078	150.000	0.000	0.000
1167305.000	0.000	0.010	-0.078	150.000	0.000	0.000
1167335.000	0.000	0.010	-0.062	150.000	0.000	0.000
1167335.000	0.000	0.010	-0.062	150.000	0.000	0.000
1167335.000	0.000	0.010	-0.062	150.000	0.000	0.000
1167365.000	0.000	0.010	-0.062	150.000	0.000	0.000
1167365.000	0.000	0.010	-0.062	150.000	0.000	0.000
1167365.000	0.000	0.010	-0.062	150.000	0.000	0.000
1167395.000	0.000	0.010	-0.047	150.000	0.000	0.000
1167395.000	0.000	0.010	-0.047	150.000	0.000	0.000
1167395.000	0.000	0.010	-0.047	150.000	0.000	0.000
1167425.000	0.000	0.010	-0.047	150.000	0.000	0.000
1167425.000	0.000	0.010	-0.047	150.000	0.000	0.000
1167425.000	0.000	0.010	-0.047	150.000	0.000	0.000
1167455.000	0.000	0.010	-0.047	150.000	0.000	0.000
1167455.000	0.000	0.010	-0.047	150.000	0.000	0.000
1167455.000	0.000	0.010	-0.047	150.000	0.000	0.000
1167485.000	0.000	0.000	-0.047	150.000	0.000	0.000
1167485.000	0.000	0.000	-0.047	150.000	0.000	0.000
1167485.000	0.000	0.000	-0.047	150.000	0.000	0.000
1167515.000	0.000	0.000	-0.047	150.000	0.000	0.000
1167515.000	0.000	0.000	-0.047	150.000	0.000	0.000
1167515.000	0.000	0.000	-0.047	150.000	0.000	0.000
1167545.000	0.000	0.000	-0.047	150.000	0.000	0.000
1167545.000	0.000	0.000	-0.047	150.000	0.000	0.000
1167545.000	0.000	0.000	-0.047	150.000	0.000	0.000
1167575.000	0.000	0.000	-0.047	150.000	0.000	0.000
1167575.000	0.000	0.000	-0.047	150.000	0.000	0.000
1167575.000	0.000	0.000	-0.047	150.000	0.000	0.000
1167605.000	0.000	0.000	-0.047	150.000	0.000	0.000
1167605.000	0.000	0.000	-0.047	150.000	0.000	0.000
1167605.000	0.000	0.000	-0.047	150.000	0.000	0.000
1167635.000	0.000	0.010	-0.047	150.000	0.000	0.000
1167635.000	0.000	0.010	-0.047	150.000	0.000	0.000
1167635.000	0.000	0.010	-0.047	150.000	0.000	0.000
1167665.000	0.000	0.010	-0.047	150.000	0.000	0.000
1167665.000	0.000	0.010	-0.047	150.000	0.000	0.000
1167665.000	0.000	0.010	-0.047	150.000	0.000	0.000
1167695.000	0.000	0.010	-0.047	150.000	0.000	0.000
1167695.000	0.000	0.010	-0.047	150.000	0.000	0.000
1167695.000	0.000	0.010	-0.047	150.000	0.000	0.000
1167725.000	0.000	0.010	-0.062	150.000	0.000	0.000
1167725.000	0.000	0.010	-0.062	150.000	0.000	0.000
1167725.000	0.000	0.010	-0.062	150.000	0.000	0.000
1167755.000	0.000	0.010	-0.062	150.000	0.000	0.000
1167755.000	0.000	0.010	-0.062	150.000	0.000	0.000
1167755.000	0.000	0.010	-0.062	150.000	0.000	0.000
1167785.000	0.000	0.010	-0.062	150.000	0.000	0.000
1167785.000	0.000	0.010	-0.062	150.000	0.000	0.000
1167785.000	0.000	0.010	-0.062	150.000	0.000	0.000
1167815.000	0.000	0.010	-0.078	150.000	0.000	0.000
1167815.000	0.000	0.010	-0.078	150.000	0.000	0.000
1167815.000	0.000	0.010	-0.078	150.000	0.000	0.000
1167845.000	0.000	0.010	-0.078	150.000	0.000	0.000
1167845.000	0.000	0.010	-0.078	150.000	0.000	0.000
1167845.000	0.000	0.010	-0.078	150.000	0.000	0.000
1167875.000	0.000	0.020	-0.078	150.000	0.000	0.000
1167875.000	0.000	0.020	-0.078	150.000	0.000	0.000
1167875.000	0.000	0.020	-0.078	150.000	0.000	0.000
1167905.000	0.000	0.020	-0.078	150.000	0.000	0.000
1167905.000	0.000	0.020	-0.078	150.000	0.000	0.000
1167905.000	0.000	0.020	-0.078	150.000	0.000	0.000
1167935.000	0.000	0.020	-0.078	150.000	0.000	0.000
1167935.000	0.000	0.020	-0.078	150.000	0.000	0.000
1167935.000	0.000	0.020	-0.078	150.000	0.000	0.000
1167965.000	0.000	0.020	-0.078	150.000	0.000	0.000
1167965.000	0.000	0.020	-0.078	150.000	0.000	0.000
1167965.000	0.000	0.020	-0.078	150.000	0.000	0.000
1167995.000	0.000	0.020	-0.078	150.000	0.000	0.000
1167995.000	0.000	0.020	-0.078	150.000	0.000	0.000
1167995.000	0.000	0.020	-0.078	150.000	0.000	0.000
1168025.000	0.000	0.020	-0.078	150.000	0.000	0.000
1168025.000	0.000	0.020	-0.078	150.000	0.000	0.000
1168025.000	0.000	0.020	-0.078	150.000	0.000	0.000
1168055.000	0.000	0.020	-0.078	150.000	0.000	0.000
1168055.000	0.000	0.020	-0.078	150.000	0.000	0.000
1168055.000	0.000	0.020	-0.078	150.000	0.000	0.000
1168085.000	0.000	0.010	-0.078	150.000	0.000	0.000
1168085.000	0.000	0.010	-0.078	150.000	0.000	0.000
1168085.000	0.000	0.010	-0.078	150.000	0.000	0.000
1168115.000	0.000	0.010	-0.078	150.000	0.000	0.000
1168115.000	0.000	0.010	-0.078	150.000	0.000	0.000
1168115.000	0.000	0.010	-0.078	150.000	0.000	0.000
1168145.000	0.000	0.010	-0.078	150.000	0.000	0.000
1168145.000	0.000	0.010	-0.078	150.000	0.000	0.000
1168145.000	0.000	0.010	-0.078	150.000	0.000	0.000
1168175.000	0.000	0.010	-0.062	150.000	0.000	0.000
1168175.000	0.000	0.010	-0.062	150.000	0.000	0.000
1168175.000	0.000	0.010	-0.062	150.000	0.000	0.000
1168205.000	0.000	0.010	-0.062	150.000	0.000	0.000
1168205.000	0.000	0.010	-0.062	150.000	0.000	0.000
1168205.000	0.000	0.010	-0.062	150.000	0.000	0.000
1168235.000	0.000	0.010	-0.062	150.000	0.000	0.000
1168235.000	0.000	0.010	-0.062	150.000	0.000	0.000
1168235.000	0.000	0.010	-0.062	150.000	0.000	0.000
1168265.000	0.000	0.010	-0.062	150.000	0.000	0.000
1168265.000	0.000	0.010	-0.062	150.000	0.000	0.000
1168265.000	0.000	0.010	-0.062	150.000	0.000	0.000
1168295.000	0.000	0.010	-0.062	150.000	0.000	0.000
1168295.000	0.000	0.010	-0.062	150.000	0.000	0.000
1168295.000	0.000	0.010	-0.062	150.000	0.000	0.000
1168325.000	0.000	0.010	-0.062	150.000	0.000	0.000
1168325.000	0.000	0.010	-0.062	150.000	0.000	0.000
1168325.000	0.000	0.010	-0.062	150.000	0.000	0.000
1168355.000	0.000	0.010	-0.062	150.000	0.000	0.000
1168355.000	0.000	0.010	-0.062	150.000	0.000	0.000
1168355.000	0.000	0.010	-0.062	150.000	0.000	0.000
1168385.000	0.000	0.010	-0.062	150.000	0.000	0.000
1168385.000	0.000	0.010	-0.062	150.000	0.000	0.000
1168385.000	0.000	0.010	-0.062	150.000	0.000	0.000
1168415.000	0.000	0.010	-0.062	150.000	0.000	0.000
1168415.000	0.000	0.010	-0.062	150.000	0.000	0.000
1168415.000	0.000	0.010	-0.062	150.000	0.000	0.000
1168445.000	0.000	0.010	-0.062	150.000	0.000	0.000
1168445.000	0.000	0.010	-0.062	150.000	0.000	0.000
1168445.000	0.000	0.010	-0.062	150.000	0.000	0.000
1168475.000	0.000	0.010	-0.062	150.000	0.000	0.000
1168475.000	0.000	0.010	-0.062	150.000	0.000	0.000
1168475.000	0.000	0.010	-0.062	150.000	0.000	0.000
1168505.000	0.000	0.010	-0.062	150.000	0.000	0.000
1168505.000	0.000	0.010	-0.062	150.000	0.000	0.000
1168505.000	0.000	0.010	-0.062	150.000	0.000	0.000
1168535.000	0.000	0.010	-0.062	150.000	0.000	0.000
1168535.000	0.000	0.010	-0.062	150.000	0.000	0.000
1168535.000	0.000	0.010	-0.062	150.000	0.000	0.000
1168565.000	0.000	0.010	-0.078	150.000	0.000	0.000
1168565.000	0.000	0.010	-0.078	150.000	0.000	0.000
1168565.000	0.000	0.010	-0.078	150.000	0.000	0.000
1168595.000	0.000	0.010	-0.078	150.000	0.000	0.000
1168595.000	0.000	0.010	-0.078	150.000	0.000	0.000
1168595.000	0.000	0.010	-0.078	150.000	0.000	0.000
1168625.000	0.000	0.010	-0.078	150.000	0.000	0.000
1168625.000	0.000	0.010	-0.078	150.000	0.000	0.000
1168625.000	0.000	0.010	-0.078	150.000	0.000	0.000
1168655.000	0.000	0.010	-0.078	150.000	0.000	0.000
1168655.000	0.000	0.010	-0.078	150.000	0.000	0.000
1168655.000	0.000	0.010	-0.078	150.000	0.000	0.000
1168685.000	0.000	0.010	-0.078	150.000	0.000	0.000
1168685.000	0.000	0.010	-0.078	150.000	0.000	0.000
1168685.000	0.000	0.010	-0.078	150.000	0.000	0.000
1168715.000	0.000	0.010	-0.078	150.000	0.000	0.000
1168715.000	0.000	0.010	-0.078	150.000	0.000	0.000
1168715.000	0.000	0.010	-0.078	150.000	0.000	0.000
1168745.000	0.000	0.010	-0.078	150.000	0.000	0.000
1168745.000	0.000	0.010	-0.078	150.000	0.000	0.000
1168745.000	0.000	0.010	-0.078	150.000	0.000	0.000
1168775.000	0.000	0.010	-0.078	150.000	0.000	0.000
1168775.000	0.000	0.010	-0.078	150.000	0.000	0.000
1168775.000	0.000	0.010	-0.078	150.000	0.000	0.000
1168805.000	0.000	0.010	-0.078	150.000	0.000	0.000
1168805.000	0.000	0.010	-0.078	150.000	0.000	0.000
1168805.000	0.000	0.010	-0.078	150.000	0.000	0.000
1168835.000	0.000	0.010	-0.078	150.000	0.000	0.000
1168835.000	0.000	0.010	-0.078	150.000	0.000	0.000
1168835.000	0.000	0.010	-0.078	150.000	0.000	0.000
1168865.000	0.000	0.010	-0.078	150.000	0.000	0.000
1168865.000	0.000	0.010	-0.078	150.000	0.000	0.000
1168865.000	0.000	0.010	-0.078	150.000	0.000	0.000
1168895.000	0.000	0.010	-0.062	150.000	0.000	0.000
1168895.000	0.000	0.010	-0.062	150.000	0.000	0.000
1168895.000	0.000	0.010	-0.062	150.000	0.000	0.000
1168925.000	0.000	0.010	-0.062	150.000	0.000	0.000
1168925.000	0.000	0.010	-0.062	150.000	0.000	0.000
1168925.000	0.000	0.010	-0.062	150.000	0.000	0.000
1168955.000	0.000	0.010	-0.062	150.000	0.000	0.000
1168955.000	0.000	0.010	-0.062	150.000	0.000	0.000
1168955.000	0.000	0.010	-0.062	150.000	0.000	0.000
1168985.000	0.000	0.010	-0.062	150.000	0.000	0.000
1168985.000	0.000	0.010	-0.062	150.000	0.000	0.000
1168985.000	0.000	0.010	-0.062	150.000	0.000	0.000
1169015.000	0.000	0.010	-0.062	150.000	0.000	0.000
1169015.000	0.000	0.010	-0.062	150.000	0.000	0.000
1169015.000	0.000	0.010	-0.062	150.000	0.000	0.000
1169045.000	0.000	0.010	-0.062	150.000	0.000	0.000
1169045.000	0.000	0.010	-0.062	150.000	0.000	0.000
1169045.000	0.000	0.010	-0.062	150.000	0.000	0.000
1169075.000	0.000	0.010	-0.062	150.000	0.000	0.000
1169075.000	0.000	0.010	-0.062	150.000	0.000	0.000
1169075.000	0.000	0.010	-0.062	150.000	0.000	0.000
1169105.000	0.000	0.010	-0.062	150.000	0.000	0.000
1169105.000	0.000	0.010	-0.062	150.000	0.000	0.000
1169105.000	0.000	0.010	-0.062	150.000	0.000	0.000
1169135.000	0.000	0.010	-0.062	150.000	0.000	0.000
1169135.000	0.000	0.010	-0.062	150.000	0.000	0.000
1169135.000	0.000	0.010	-0.062	150.000	0.000	0.000
1169165.000	0.000	0.010	-0.062	150.000	0.000	0.000
1169165.000	0.000	0.010	-0.062	150.000	0.000	0.000
1169165.000	0.000	0.010	-0.062	150.000	0.000	0.000
1169195.000	0.000	0.010	-0.078	150.000	0.000	0.000
1169195.000	0.000	0.010	-0.078	150.000	0.000	0.000
1169195.000	0.000	0.010	-0.078	150.000	0.000	0.000
1169225.000	0.000	0.010	-0.078	150.000	0.000	0.000
1169225.000	0.000	0.010	-0.078	150.000	0.000	0.000
1169225.000	0.000	0.010	-0.078	150.000	0.000	0.000
1169255.000	0.000	0.010	-0.078	150.000	0.000	0.000
1169255.000	0.000	0.010	-0.078	150.000	0.000	0.000
1169255.000	0.000	0.010	-0.078	150.000	0.000	0.000
1169285.000	0.000	0.010	-0.078	150.000	0.000	0.000
1169285.000	0.000	0.010	-0.078	150.000	0.000	0.000
1169285.000	0.000	0.010	-0.078	150.000	0.000	0.000
1169315.000	0.000	0.010	-0.078	150.000	0.000	0.000
1169315.000	0.000	0.010	-0.078	150.000	0.000	0.000
1169315.000	0.000	0.010	-0.078	150.000	0.000	0.000
1169345.000	0.000	0.010	-0.078	150.000	0.000	0.000
1169345.000	0.000	0.010	-0.078	150.000	0.000	0.000
1169345.000	0.000	0.010	-0.078	150.000	0.000	0.000
1169375.000	0.000	0.010	-0.078	150.000	0.000	0.000
1169375.000	0.000	0.010	-0.078	150.000	0.000	0.000
1169375.000	0.000	0.010	-0.078	150.000	0.000	0.000
1169405.000	0.000	0.010	-0.078	150.000	0.000	0.000
1169405.000	0.000	0.010	-0.078	150.000	0.000	0.000
1169405.000	0.000	0.010	-0.078	150.000	0.000	0.000
1169435.000	0.000	0.010	-0.078	150.000	0.000	0.000
1169435.000	0.000	0.010	-0.078	150.000	0.000	0.000
1169435.000	0.000	0.010	-0.078	150.000	0.000	0.000
1169465.000	0.000	0.010	-0.078	150.000	0.000	0.000
1169465.000	0.000	0.010	-0.078	150.000	0.000	0.000
1169465.000	0.000	0.010	-0.078	150.000	0.000	0.000
1169495.000	0.000	0.010	-0.062	150.000	0.000	0.000
1169495.000	0.000	0.010	-0.062	150.000	0.000	0.000
1169495.000	0.000	0.010	-0.062	150.000	0.000	0.000
1169525.000	0.000	0.010	-0.062	150.000	0.000	0.000
1169525.000	0.000	0.010	-0.062	150.000	0.000	0.000
1169525.000	0.000	0.010	-0.062	150.000	0.000	0.000
1169555.000	0.000	0.010	-0.062	150.000	0.000	0.000
1169555.000	0.000	0.010	-0.062	150.000	0.000	0.000
1169555.000	0.000	0.010	-0.062	150.000	0.000	0.000
1169585.000	0.000	0.010	-0.062	150.000	0.000	0.000
1169585.000	0.000	0.010	-0.062	150.000	0.000	0.000
1169585.000	0.000	0.010	-0.062	150.000	0.000	0.000
1169615.000	0.000	0.010	-0.062	150.000	0.000	0.000
1169615.000	0.000	0.010	-0.062	150.000	0.000	0.000
1169615.000	0.000	0.010	-0.062	150.000	0.000	0.000
1169645.000	0.000	0.010	-0.062	150.000	0.000	0.000
1169645.000	0.000	0.010	-0.062	150.000	0.000	0.000
1169645.000	0.000	0.010	-0.062	150.000	0.000	0.000
1169675.000	0.000	0.010	-0.062	150.000	0.000	0.000
1169675.000	0.000	0.010	-0.062	150.000	0.000	0.000
1169675.000	0.000	0.010	-0.062	150.000	0.000	0.000
1169705.000	0.000	0.010	-0.062	150.000	0.000	0.000
1169705.000	0.000	0.010	-0.062	150.000	0.000	0.000
1169705.000	0.000	0.010	-0.062	150.000	0.000	0.000
1169735.000	0.000	0.010	-0.078	150.000	0.000	0.000
1169735.000	0.000	0.010	-0.078	150.000	0.000	0.000
1169735.000	0.000	0.010	-0.078	150.000	0.000	0.000
1169765.000	0.000	0.010	-0.078	150.000	0.000	0.000
1169765.000	0.000	0.010	-0.078	150.000	0.000	0.000
1169765.000	0.000	0.010	-0.078	150.000	0.000	0.000
1169795.000	0.000	0.010	-0.078	150.000	0.000	0.000
1169795.000	0.000	0.010	-0.078	150.000	0.000	0.000
1169795.000	0.000	0.010	-0.078	150.000	0.000	0.000
1169825.000	0.000	0.010	-0.078	150.000	0.000	0.000
1169825.000	0.000	0.010	-0.078	150.000	0.000	0.000
1169825.000	0.000	0.010	-0.078	150.000	0.000	0.000
1169855.000	0.000	0.010	-0.078	150.000	0.000	0.000
1169855.000	0.000	0.010	-0.078	150.000	0.000	0.000
1169855.000	0.000	0.010	-0.078	150.000	0.000	0.000
1169885.000	0.000	0.010	-0.078	150.000	0.000	0.000
1169885.000	0.000	0.010	-0.078	150.000	0.000	0.000
1169885.000	0.000	0.010	-0.078	150.000	0.000	0.000
1169915.000	0.000	0.010	-0.078	150.000	0.000	0.000
1169915.000	0.000	0.010	-0.078	150.000	0.000	0.000
1169915.000	0.000	0.010	-0.078	150.000	0.000	0.000
1169945.000	0.000	0.010	-0.078	150.000	0.000	0.000
1169945.000	0.000	0.010	-0.078	150.000	0.000	0.000
1169945.000	0.000	0.010	-0.078	150.000	0.000	0.000
1169975.000	0.000	0.010	-0.078	150.000	0.000	0.000
1169975.000	0.000	0.010	-0.078	150.000	0.000	0.000
1169975.000	0.000	0.010	-0.078	150.000	0.000	0.000
1170005.000	0.000	0.010	-0.078	150.000	0.000	0.000
1170005.000	0.000	0.010	-0.078	150.000	0.000	0.000
1170005.000	0.000	0.010	-0.078	150.000	0.000	0.000
1170035.000	0.000	0.010	-0.078	150.000	0.000	0.000
1170035.000	0.000	0.010	-0.078	150.000	0.000	0.000
1170035.000	0.000	0.010	-0.078	150.000	0.000	0.000
1170065.000	0.000	0.010	-0.062	150.000	0.000	0.000
1170065.000	0.000	0.010	-0.062	150.000	0.000	0.000
1170065.000	0.000	0.010	-0.062	150.000	0.000	0.000
1170095.000	0.000	0.010	-0.062	150.000	0.000	0.000
1170095.000	0.000	0.010	-0.062	150.000	0.000	0.000
1170095.000	0.000	0.010	-0.062	150.000	0.000	0.000
1170125.000	0.000	0.010	-0.062	150.000	0.000	0.000
1170125.000	0.000	0.010	-0.062	150.000	0.000	0.000
1170125.000	0.000	0.010	-0.062	150.000	0.000	0.000
1170155.000	0.000	0.010	-0.062	150.000	0.000	0.000
1170155.000	0.000	0.010	-0.062	150.000	0.000	0.000
1170155.000	0.000	0.010	-0.062	150.000	0.000	0.000
1170185.000	0.000	0.010	-0.062	150.000	0.000	0.000
1170185.000	0.000	0.010	-0.062	150.000	0.000	0.000
1170185.000	0.000	0.010	-0.062	150.000	0.000	0.000
1170215.000	0.000	0.010	-0.062	150.000	0.000	0.000
1170215.000	0.000	0.010	-0.062	150.000	0.000	0.000
1170215.000	0.000	0.010	-0.062	150.000	0.000	0.000
1170245.000	0.000	0.010	-0.078	150.000	0.000	0.000
1170245.000	0.000	0.010	-0.078	150.000	0.000	0.000
1170245.000	0.000	0.010	-0.078	150.000	0.000	0.000
1170275.000	0.000	0.010	-0.078	150.000	0.000	0.000
1170275.000	0.000	0.010	-0.078	150.000	0.000	0.000
1170275.000	0.000	0.010	-0.078	150.000	0.000	0.000
1170305.000	0.000	0.010	-0.078	150.000	0.000	0.000
1170305.000	0.000	0.010	-0.078	150.000	0.000	0.000
1170305.000	0.000	0.010	-0.078	150.000	0.000	0.000
1170335.000	0.000	0.010	-0.078	150.000	0.000	0.000
1170335.000	0.000	0.010	-0.078	150.000	0.000	0.000
1170335.000	0.000	0.010	-0.078	150.000	0.000	0.000
1170365.000	0.000	0.010	-0.078	150.000	0.000	0.000
1170365.000	0.000	0.010	-0.078	150.000	0.000	0.000
1170365.000	0.000	0.010	-0.078	150.000	0.000	0.000
1170395.000	0.000	0.010	-0.078	150.000	0.000	0.000
1170395.000	0.000	0.010	-0.078	150.000	0.000	0.000
1170395.000	0.000	0.010	-0.078	150.000	0.000	0.000
1170425.000	0.000	0.010	-0.078	150.000	0.000	0.000
1170425.000	0.000	0.010	-0.078	150.000	0.000	0.000
1170425.000	0.000	0.010	-0.078	150.000	0.000	0.000
1170455.000	0.000	0.010	-0.078	150.000	0.000	0.000
1170455.000	0.000	0.010	-0.078	150.000	0.000	0.000
1170455.000	0.000	0.010	-0.078	150.000	0.000	0.000
1170485.000	0.000	0.010	-0.078	150.000	0.000	0.000
1170485.000	0.000	0.010	-0.078	150.000	0.000	0.000
1170485.000	0.000	0.010	-0.078	150.000	0.000	0.000
1170515.000	0.000	0.010	-0.078	150.000	0.000	0.000
1170515.000	0.000	0.010	-0.078	150.000	0.000	0.000
1170515.000	0.000	0.010	-0.078	150.000	0.000	0.000
1170545.000	0.000	0.010	-0.078	150.000	0.000	0.000
1170545.000	0.000	0.010	-0.078	150.000	0.000	0.000
1170545.000	0.000	0.010	-0.078	150.000	0.000	0.000
1170575.000	0.000	0.010	-0.062	150.000	0.000	0.000
1170575.000	0.000	0.010	-0.062	150.000	0.000	0.000
1170575.000	0.000	0.010	-0.062	150.000	0.000	0.000
1170605.000	0.000	0.010	-0.062	150.000	0.000	0.000
1170605.000	0.000	0.010	-0.062	150.000	0.000	0.000
1170605.000	0.000	0.010	-0.062	150.000	0.000	0.000
1170635.000	0.000	0.010	-0.062	150.000	0.000	0.000
1170635.000	0.000	0.010	-0.062	150.000	0.000	0.000
1170635.000	0.000	0.010	-0.062	150.000	0.000	0.000
1170665.000	0.000	0.010	-0.062	150.000	0.000	0.000
1170665.000	0.000	0.010	-0.062	150.000	0.000	0.000
1170665.000	0.000	0.010	-0.062	150.000	0.000	0.000
1170695.000	0.000	0.010	-0.062	150.000	0.000	0.000
1170695.000	0.000	0.010	-0.062	150.000	0.000	0.000
1170695.000	0.000	0.010	-0.062	150.000	0.000	0.000
1170725.000	0.000	0.010	-0.078	150.000	0.000	0.000
1170725.000	0.000	0.010	-0.078	150.000	0.000	0.000
1170725.000	0.000	0.010	-0.078	150.000	0.000	0.000
1170755.000	0.000	0.010	-0.078	150.000	0.000	0.000
1170755.000	0.000	0.010	-0.078	150.000	0.000	0.000
1170755.000	0.000	0.010	-0.078	150.000	0.000	0.000
1170785.000	0.000	0.010	-0.078	150.000	0.000	0.000
1170785.000	0.000	0.010	-0.078	150.000	0.000	0.000
1170785.000	0.000	0.010	-0.078	150.000	0.000	0.000
1170815.000	0.000	0.010	-0.078	150.000	0.000	0.000
1170815.000	0.000	0.010	-0.078	150.000	0.000	0.000
1170815.000	0.000	0.010	-0.078	150.000	0.000	0.000
1170845.000	0.000	0.010	-0.078	150.000	0.000	0.000
1170845.000	0.000	0.010	-0.078	150.000	0.000	0.000
1170845.000	0.000	0.010	-0.078	150.000	0.000	0.000
1170875.000	0.000	0.010	-0.078	150.000	0.000	0.000
1170875.000	0.000	0.010	-0.078	150.000	0.000	0.000
1170875.000	0.000	0.010	-0.078	150.000	0.000	0.000
1170905.000	0.000	0.010	-0.078	150.000	0.000	0.000
1170905.000	0.000	0.010	-0.078	150.000	0.000	0.000
1170905.000	0.000	0.010	-0.078	150.000	0.000	0.000
1170935.000	0.000	0.010	-0.078	150.000	0.000	0.000
1170935.000	0.000	0.010	-0.078	150.000	0.000	0.000
1170935.000	0.000	0.010	-0.078	150.000	0.000	0.000
1170965.000	0.000	0.010	-0.078	150.000	0.000	0.000
1170965.000	0.000	0.010	-0.078	150.000	0.000	0.000
1170965.000	0.000	0.010	-0.078	150.000	0.000	0.000
1170995.000	0.000	0.010	-0.078	150.000	0.000	0.000
1170995.000	0.000	0.010	-0.078	150.000	0.000	0.000
1170995.000	0.000	0.010	-0.078	150.000	0.000	0.000
1171025.000	0.000	0.010	-0.078	150.000	0.000	0.000
1171025.000	0.000	0.010	-0.078	150.000	0.000	0.000
1171025.000	0.000	0.010	-0.078	150.000	0.000	0.000
1171055.000	0.000	0.010	-0.078	150.000	0.000	0.000
1171055.000	0.000	0.010	-0.078	150.000	0.000	0.000
1171055.000	0.000	0.010	-0.078	150.000	0.000	0.000
1171085.000	0.000	0.010	-0.062	150.000	0.000	0.000
1171085.000	0.000	0.010	-0.062	150.000	0.000	0.000
1171085.000	0.000	0.010	-0.062	150.000	0.000	0.000
1171115.000	0.000	0.010	-0.062	150.000	0.000	0.000
1171115.000	0.000	0.010	-0.062	150.000	0.000	0.000
1171115.000	0.000	0.010	-0.062	150.000	0.000	0.000
1171145.000	0.000	0.010	-0.062	150.000	0.000	0.000
1171145.000	0.000	0.010	-0.062	150.000	0.000	0.000
1171145.000	0.000	0.010	-0.062	150.000	0.000	0.000
1171175.000	0.000	0.010	-0.062	150.000	0.000	0.000
1171175.000	0.000	0.010	-0.062	150.000	0.000	0.000
1171175.000	0.000	0.010	-0.062	150.000	0.000	0.000
1171205.000	0.000	0.010	-0.078	150.000	0.000	0.000
1171205.000	0.000	0.010	-0.078	150.000	0.000	0.000
1171205.000	0.000	0.010	-0.078	150.000	0.000	0.000
1171235.000	0.000	0.010	-0.078	150.000	0.000	0.000
1171235.000	0.000	0.010	-0.078	150.000	0.000	0.000
1171235.000	0.000	0.010	-0.078	150.000	0.000	0.000
1171265.000	0.000	0.010	-0.078	150.000	0.000	0.000
1171265.000	0.000	0.010	-0.078	150.000	0.000	0.000
1171265.000	0.000	0.010	-0.078	150.000	0.000	0.000
1171290.000	0.000	0.010	-0.078	150.000	0.000	0.000
1171290.000	0.000	0.010	-0.078	150.000	0.000	0.000
1171290.000	0.000	0.010	-0.078	150.000	0.000	0.000
1171325.000	0.000	0.010	-0.078	150.000	0.000	0.000
1171325.000	0.000	0.010	-0.078	150.000	0.000	0.000
1171325.000	0.000	0.010	-0.078	150.000	0.000	0.000
1171355.000	0.000	0.010	-0.078	150.000	0.000	0.000
1171355.000	0.000	0.010	-0.078	150.000	0.000	0.000
1171355.000	0.000	0.010	-0.078	150.000	0.000	0.000
1171385.000	0.000	0.010	-0.078	150.000	0.000	0.000
1171385.000	0.000	0.010	-0.078	150.000	0.000	0.000
1171385.000	0.000	0.010	-0.078	150.000	0.000	0.000
1171415.000	0.000	0.010	-0.078	150.000	0.000	0.000
1171415.000	0.000	0.010	-0.078	150.000	0.000	0.000
1171415.000	0.000	0.010	-0.078	150.000	0.000	0.000
1171445.000	0.000	0.010	-0.078	150.000	0.000	0.000
1171445.000	0.000	0.010	-0.078	150.000	0.000	0.000
1171445.000	0.000	0.010	-0.078	150.000	0.000	0.000
1171475.000	0.000	0.010	-0.078	150.000	0.000	0.000
1171475.000	0.000	0.010	-0.078	150.000	0.000	0.000
1171475.000	0.000	0.010	-0.078	150.000	0.000	0.000
1171505.000	0.000	0.010	-0.078	150.000	0.000	0.000
1171505.000	0.000	0.010	-0.078	150.000	0.000	0.000
1171505.000	0.000	0.010	-0.078	150.000	0.000	0.000
1171535.000	0.000	0.010	-0.078	150.000	0.000	0.000
1171535.000	0.000	0.010	-0.078	150.000	0.000	0.000
1171535.000	0.000	0.010	-0.078	150.000	0.000	0.000
1171565.000	0.000	0.010	-0.078	150.000	0.000	0.000
1171565.000	0.000	0.010	-0.078	150.000	0.000	0.000
1171565.000	0.000	0.010	-0.078	150.000	0.000	0.000
1171595.000	0.000	0.010	-0.062	150.000	0.000	0.000
1171595.000	0.000	0.010	-0.062	150.000	0.000	0.000
1171595.000	0.000	0.010	-0.062	150.000	0.000	0.000
1171625.000	0.000	0.010	-0.062	150.000	0.000	0.000
1171625.000	0.000	0.010	-0.062	150.000	0.000	0.000
1171625.000	0.000	0.010	-0.062	150.000	0.000	0.000
1171655.000	0.000	0.010	-0.078	150.000	0.000	0.000
1171655.000	0.000	0.010	-0.078	150.000	0.000	0.000
1171655.000	0.000	0.010	-0.078	150.000	0.000	0.000
1171685.000	0.000	0.010	-0.078	150.000	0.000	0.000
1171685.000	0.000	0.010	-0.078	150.000	0.000	0.000
1171685.000	0.000	0.010	-0.078	150.000	0.000	0.000
1171715.000	0.000	0.010	-0.078	150.000	0.000	0.000
1171715.000	0.000	0.010	-0.078	150.000	0.000	0.000
1171715.000	0.000	0.010	-0.078	150.000	0.000	0.000
1171745.000	0.000	0.010	-0.078	150.000	0.000	0.000
1171745.000	0.000	0.010	-0.078	150.000	0.000	0.000
1171745.000	0.000	0.010	-0.078	150.000	0.000	0.000
1171775.000	0.000	0.010	-0.078	150.000	0.000	0.000
1171775.000	0.000	0.010	-0.078	150.000	0.000	0.000
1171775.000	0.000	0.010	-0.078	150.000	0.000	0.000
1171800.000	0.000	0.010	-0.078	150.000	0.000	0.000
1171800.000	0.000	0.010	-0.078	150.000	0.000	0.000
1171800.000	0.000	0.010	-0.078	150.000	0.000	0.000
1171830.000	0.000	0.010	-0.078	150.000	0.000	0.000
1171830.000	0.000	0.010	-0.078	150.000	0.000	0.000
1171830.000	0.000	0.010	-0.078	150.000	0.000	0.000
1171865.000	0.000	0.010	-0.078	150.000	0.000	0.000
1171865.000	0.000	0.010	-0.078	150.000	0.000	0.000
1171865.000	0.000	0.010	-0.078	150.000	0.000	0.000
1171895.000	0.000	0.010	-0.078	150.000	0.000	0.000
1171895.000	0.000	0.010	-0.078	150.000	0.000	0.000
1171895.000	0.000	0.010	-0.078	150.000	0.000	0.000
1171925.000	0.000	0.010	-0.078	150.000	0.000	0.000
1171925.000	0.000	0.010	-0.078	150.000	0.000	0.000
1171925.000	0.000	0.010	-0.078	150.000	0.000	0.000
1171950.000	0.000	0.010	-0.078	150.000	0.000	0.000
1171950.000	0.000	0.010	-0.078	150.000	0.000	0.000
1171950.000	0.000	0.010	-0.078	150.000	0.000	0.000
1171980.000	0.000	0.010	-0.078	150.000	0.000	0.000
1171980.000	0.000	0.010	-0.078	150.000	0.000	0.000
1171980.000	0.000	0.010	-0.078	150.000	0.000	0.000
1172015.000	0.000	0.010	-0.078	150.000	0.000	0.000
1172015.000	0.000	0.010	-0.078	150.000	0.000	0.000
1172015.000	0.000	0.010	-0.078	150.000	0.000	0.000
1172040.000	0.000	0.010	-0.078	150.000	0.000	0.000
1172040.000	0.000	0.010	-0.078	150.000	0.000	0.000
1172040.000	0.000	0.010	-0.078	150.000	0.000	0.000
1172075.000	0.000	0.010	-0.078	150.000	0.000	0.000
1172075.000	0.000	0.010	-0.078	150.000	0.000	0.000
1172075.000	0.000	0.010	-0.078	150.000	0.000	0.000
1172105.000	0.000	0.010	-0.078	150.000	0.000	0.000
1172105.000	0.000	0.010	-0.078	150.000	0.000	0.000
1172105.000	0.000	0.010	-0.078	150.000	0.000	0.000
1172135.000	0.000	0.010	-0.078	150.000	0.000	0.000
1172135.000	0.000	0.010	-0.078	150.000	0.000	0.000
1172135.000	0.000	0.010	-0.078	150.000	0.000	0.000
1172165.000	0.000	0.010	-0.078	150.000	0.000	0.000
1172165.000	0.000	0.010	-0.078	150.000	0.000	0.000
1172165.000	0.000	0.010	-0.078	150.000	0.000	0.000
1172190.000	0.000	0.010	-0.078	150.000	0.000	0.000
1172190.000	0.000	0.010	-0.078	150.000	0.000	0.000
1172190.000	0.000	0.010	-0.078	150.000	0.000	0.000
1172220.000	0.000	0.010	-0.078	150.000	0.000	0.000
1172220.000	0.000	0.010	-0.078	150.000	0.000	0.000
1172220.000	0.000	0.010	-0.078	150.000	0.000	0.000
1172255.000	0.000	0.010	-0.078	150.000	0.000	0.000
1172255.000	0.000	0.010	-0.078	150.000	0.000	0.000
1172255.000	0.000	0.010	-0.078	150.000	0.000	0.000
1172285.000	0.000	0.010	-0.078	150.000	0.000	0.000
1172285.000	0.000	0.010	-0.078	150.000	0.000	0.000
1172285.000	0.000	0.010	-0.078	150.000	0.000	0.000
1172315.000	0.000	0.010	-0.078	150.000	0.000	0.000
1172315.000	0.000	0.010	-0.078	150.000	0.000	0.000
1172315.000	0.000	0.010	-0.078	150.000	0.000	0.000
1172340.000	0.000	0.010	-0.078	150.000	0.000	0.000
1172340.000	0.000	0.010	-0.078	150.000	0.000	0.000
1172340.000	0.000	0.010	-0.078	150.000	0.000	0.000
1172375.000	0.000	0.010	-0.078	150.000	0.000	0.000
1172375.000	0.000	0.010	-0.078	150.000	0.000	0.000
1172375.000	0.000	0.010	-0.078	150.000	0.000	0.000
1172405.000	0.000	0.010	-0.078	150.000	0.000	0.000
1172405.000	0.000	0.010	-0.078	150.000	0.000	0.000
1172405.000	0.000	0.010	-0.078	150.000	0.000	0.000
1172435.000	0.000	0.010	-0.078	150.000	0.000	0.000
1172435.000	0.000	0.010	-0.078	150.000	0.000	0.000
1172435.000	0.000	0.010	-0.078	150.000	0.000	0.000
1172460.000	0.000	0.010	-0.078	150.000	0.000	0.000
1172460.000	0.000	0.010	-0.078	150.000	0.000	0.000
1172460.000	0.000	0.010	-0.078	150.000	0.000	0.000
1172490.000	0.000	0.010	-0.078	150.000	0.000	0.000
1172490.000	0.000	0.010	-0.078	150.000	0.000	0.000
1172490.000	0.000	0.010	-0.078	150.000	0.000	0.000
1172520.000	0.000	0.010	-0.078	150.000	0.000	0.000
1172520.000	0.000	0.010	-0.078	150.000	0.000	0.000
1172520.000	0.000	0.010	-0.078	150.000	0.000	0.000
1172555.000	0.000	0.010	-0.078	150.000	0.000	0.000
1172555.000	0.000	0.010	-0.078	150.000	0.000	0.000
1172555.000	0.000	0.010	-0.078	150.000	0.000	0.000
